LabVIEW Measurement	
Writer_Version	2
Reader_Version	2
Separator	Tab
Decimal_Separator	.
Multi_Headings	Yes
X_Columns	One
Time_Pref	Absolute
Operator	labuser
Date	1904/01/01
Time	01:00:00.
***End_of_Header***	
	
Channels	1	
Samples	10000	
Date	2019/05/16	
Time	10:08:55.3175875999998357098	
Y_Unit_Label	Volts	
X_Dimension	Time	
X0	0.0000000000000000E+0	
Delta_X	0.000500	
***End_of_Header***		
X_Value	Voltage	Comment
0.000000	1.843766
0.000500	1.843766
0.001000	1.842492
0.001500	1.843766
0.002000	1.842810
0.002500	1.843447
0.003000	1.844721
0.003500	1.843129
0.004000	1.842492
0.004500	1.842492
0.005000	1.843129
0.005500	1.843766
0.006000	1.843766
0.006500	1.842492
0.007000	1.843766
0.007500	1.843447
0.008000	1.843766
0.008500	1.843447
0.009000	1.842810
0.009500	1.843129
0.010000	1.844084
0.010500	1.843447
0.011000	1.843129
0.011500	1.843447
0.012000	1.843129
0.012500	1.844084
0.013000	1.843766
0.013500	1.843129
0.014000	1.843766
0.014500	1.843447
0.015000	1.843766
0.015500	1.843766
0.016000	1.843129
0.016500	1.843766
0.017000	1.843766
0.017500	1.843447
0.018000	1.844403
0.018500	1.843447
0.019000	1.843447
0.019500	1.844721
0.020000	1.843447
0.020500	1.844084
0.021000	1.843766
0.021500	1.843447
0.022000	1.845040
0.022500	1.844084
0.023000	1.843766
0.023500	1.843766
0.024000	1.843447
0.024500	1.843766
0.025000	1.844084
0.025500	1.842492
0.026000	1.844403
0.026500	1.844084
0.027000	1.843447
0.027500	1.843766
0.028000	1.843129
0.028500	1.844084
0.029000	1.844084
0.029500	1.844084
0.030000	1.843766
0.030500	1.844084
0.031000	1.843129
0.031500	1.844403
0.032000	1.843766
0.032500	1.843766
0.033000	1.843447
0.033500	1.843766
0.034000	1.844403
0.034500	1.843766
0.035000	1.843766
0.035500	1.844403
0.036000	1.843447
0.036500	1.844084
0.037000	1.844084
0.037500	1.843766
0.038000	1.843766
0.038500	1.844084
0.039000	1.844403
0.039500	1.844403
0.040000	1.843129
0.040500	1.843447
0.041000	1.844721
0.041500	1.844084
0.042000	1.843766
0.042500	1.844084
0.043000	1.844084
0.043500	1.844084
0.044000	1.843766
0.044500	1.844084
0.045000	1.844721
0.045500	1.844721
0.046000	1.843766
0.046500	1.844721
0.047000	1.843766
0.047500	1.843447
0.048000	1.843766
0.048500	1.843766
0.049000	1.843447
0.049500	1.843447
0.050000	1.843129
0.050500	1.844084
0.051000	1.843766
0.051500	1.843129
0.052000	1.843766
0.052500	1.843447
0.053000	1.843766
0.053500	1.844403
0.054000	1.843129
0.054500	1.843766
0.055000	1.844084
0.055500	1.843447
0.056000	1.843766
0.056500	1.843766
0.057000	1.843766
0.057500	1.844721
0.058000	1.844084
0.058500	1.843129
0.059000	1.843766
0.059500	1.843447
0.060000	1.844084
0.060500	1.843447
0.061000	1.843129
0.061500	1.844084
0.062000	1.843129
0.062500	1.843766
0.063000	1.843129
0.063500	1.842810
0.064000	1.843129
0.064500	1.843766
0.065000	1.843129
0.065500	1.842810
0.066000	1.842810
0.066500	1.843447
0.067000	1.844084
0.067500	1.843129
0.068000	1.842810
0.068500	1.842810
0.069000	1.842492
0.069500	1.843129
0.070000	1.843129
0.070500	1.841855
0.071000	1.843766
0.071500	1.843129
0.072000	1.843766
0.072500	1.843129
0.073000	1.842492
0.073500	1.843766
0.074000	1.843766
0.074500	1.843129
0.075000	1.844084
0.075500	1.843129
0.076000	1.843129
0.076500	1.843766
0.077000	1.842492
0.077500	1.843766
0.078000	1.843447
0.078500	1.842810
0.079000	1.843766
0.079500	1.843129
0.080000	1.842492
0.080500	1.843447
0.081000	1.842492
0.081500	1.843129
0.082000	1.843766
0.082500	1.842492
0.083000	1.842492
0.083500	1.843766
0.084000	1.843129
0.084500	1.843766
0.085000	1.842810
0.085500	1.842492
0.086000	1.844084
0.086500	1.843129
0.087000	1.842492
0.087500	1.842173
0.088000	1.843129
0.088500	1.843129
0.089000	1.842810
0.089500	1.842810
0.090000	1.843447
0.090500	1.842810
0.091000	1.843447
0.091500	1.843129
0.092000	1.842492
0.092500	1.843129
0.093000	1.843766
0.093500	1.843129
0.094000	1.843447
0.094500	1.842810
0.095000	1.842492
0.095500	1.844084
0.096000	1.843447
0.096500	1.842492
0.097000	1.842492
0.097500	1.843129
0.098000	1.843447
0.098500	1.842810
0.099000	1.842173
0.099500	1.843766
0.100000	1.843447
0.100500	1.842810
0.101000	1.843766
0.101500	1.843129
0.102000	1.843447
0.102500	1.844084
0.103000	1.843447
0.103500	1.843447
0.104000	1.842810
0.104500	1.842810
0.105000	1.844084
0.105500	1.843447
0.106000	1.842810
0.106500	1.843766
0.107000	1.843766
0.107500	1.843447
0.108000	1.843766
0.108500	1.842492
0.109000	1.843766
0.109500	1.843766
0.110000	1.843766
0.110500	1.844084
0.111000	1.843129
0.111500	1.844403
0.112000	1.844084
0.112500	1.843766
0.113000	1.843129
0.113500	1.843447
0.114000	1.842810
0.114500	1.843766
0.115000	1.843129
0.115500	1.842810
0.116000	1.843766
0.116500	1.843447
0.117000	1.843129
0.117500	1.843766
0.118000	1.842810
0.118500	1.844084
0.119000	1.843766
0.119500	1.842810
0.120000	1.843766
0.120500	1.842810
0.121000	1.843766
0.121500	1.844403
0.122000	1.843766
0.122500	1.843766
0.123000	1.844084
0.123500	1.843129
0.124000	1.844084
0.124500	1.842810
0.125000	1.842492
0.125500	1.844084
0.126000	1.842810
0.126500	1.843766
0.127000	1.843766
0.127500	1.842810
0.128000	1.844403
0.128500	1.844084
0.129000	1.844403
0.129500	1.844084
0.130000	1.843129
0.130500	1.843766
0.131000	1.844403
0.131500	1.843129
0.132000	1.843766
0.132500	1.843129
0.133000	1.843766
0.133500	1.844721
0.134000	1.843447
0.134500	1.842492
0.135000	1.843129
0.135500	1.843129
0.136000	1.843766
0.136500	1.843129
0.137000	1.842810
0.137500	1.843447
0.138000	1.843129
0.138500	1.843447
0.139000	1.843766
0.139500	1.842492
0.140000	1.842492
0.140500	1.843766
0.141000	1.842492
0.141500	1.843129
0.142000	1.842810
0.142500	1.842173
0.143000	1.843129
0.143500	1.842810
0.144000	1.842810
0.144500	1.843129
0.145000	1.842492
0.145500	1.843766
0.146000	1.843447
0.146500	1.842810
0.147000	1.843129
0.147500	1.843766
0.148000	1.843129
0.148500	1.843766
0.149000	1.842492
0.149500	1.842492
0.150000	1.843129
0.150500	1.841855
0.151000	1.842492
0.151500	1.842173
0.152000	1.842492
0.152500	1.843766
0.153000	1.842173
0.153500	1.842173
0.154000	1.842173
0.154500	1.842173
0.155000	1.844084
0.155500	1.842810
0.156000	1.842492
0.156500	1.842492
0.157000	1.842492
0.157500	1.841855
0.158000	1.842492
0.158500	1.841218
0.159000	1.843129
0.159500	1.843129
0.160000	1.842173
0.160500	1.842492
0.161000	1.841855
0.161500	1.842173
0.162000	1.843129
0.162500	1.842810
0.163000	1.841218
0.163500	1.842492
0.164000	1.841855
0.164500	1.841855
0.165000	1.842810
0.165500	1.841537
0.166000	1.841855
0.166500	1.842492
0.167000	1.842810
0.167500	1.842810
0.168000	1.842492
0.168500	1.840900
0.169000	1.842492
0.169500	1.842492
0.170000	1.841218
0.170500	1.842810
0.171000	1.841855
0.171500	1.842492
0.172000	1.842492
0.172500	1.841218
0.173000	1.842810
0.173500	1.842810
0.174000	1.841855
0.174500	1.842492
0.175000	1.841218
0.175500	1.841855
0.176000	1.843129
0.176500	1.841855
0.177000	1.842810
0.177500	1.841218
0.178000	1.841855
0.178500	1.842492
0.179000	1.842492
0.179500	1.841218
0.180000	1.841537
0.180500	1.841855
0.181000	1.842492
0.181500	1.841855
0.182000	1.841218
0.182500	1.841855
0.183000	1.842810
0.183500	1.841537
0.184000	1.843129
0.184500	1.841218
0.185000	1.841537
0.185500	1.842173
0.186000	1.841855
0.186500	1.842173
0.187000	1.842173
0.187500	1.842492
0.188000	1.842492
0.188500	1.843129
0.189000	1.841855
0.189500	1.841855
0.190000	1.841855
0.190500	1.841855
0.191000	1.841855
0.191500	1.841537
0.192000	1.841537
0.192500	1.842492
0.193000	1.841855
0.193500	1.841537
0.194000	1.842173
0.194500	1.841855
0.195000	1.842492
0.195500	1.841855
0.196000	1.841855
0.196500	1.841855
0.197000	1.842173
0.197500	1.843129
0.198000	1.842492
0.198500	1.841537
0.199000	1.842810
0.199500	1.842173
0.200000	1.842173
0.200500	1.843129
0.201000	1.842492
0.201500	1.842810
0.202000	1.842810
0.202500	1.842173
0.203000	1.842492
0.203500	1.842492
0.204000	1.841855
0.204500	1.842173
0.205000	1.842173
0.205500	1.841537
0.206000	1.842810
0.206500	1.842492
0.207000	1.842492
0.207500	1.843447
0.208000	1.842173
0.208500	1.843129
0.209000	1.843766
0.209500	1.842492
0.210000	1.842492
0.210500	1.843129
0.211000	1.842173
0.211500	1.843447
0.212000	1.843129
0.212500	1.842810
0.213000	1.842810
0.213500	1.842492
0.214000	1.843129
0.214500	1.842492
0.215000	1.841855
0.215500	1.843129
0.216000	1.843129
0.216500	1.843447
0.217000	1.843129
0.217500	1.842492
0.218000	1.843447
0.218500	1.843766
0.219000	1.842492
0.219500	1.844084
0.220000	1.842173
0.220500	1.842810
0.221000	1.843766
0.221500	1.842173
0.222000	1.842810
0.222500	1.841855
0.223000	1.843447
0.223500	1.843766
0.224000	1.843447
0.224500	1.842492
0.225000	1.843129
0.225500	1.844084
0.226000	1.842492
0.226500	1.843766
0.227000	1.842492
0.227500	1.842492
0.228000	1.844084
0.228500	1.842810
0.229000	1.843129
0.229500	1.842173
0.230000	1.842492
0.230500	1.842810
0.231000	1.842492
0.231500	1.841855
0.232000	1.842492
0.232500	1.842492
0.233000	1.842492
0.233500	1.842810
0.234000	1.841537
0.234500	1.842492
0.235000	1.843766
0.235500	1.842173
0.236000	1.843447
0.236500	1.842492
0.237000	1.842492
0.237500	1.843766
0.238000	1.841855
0.238500	1.842492
0.239000	1.842810
0.239500	1.842492
0.240000	1.843129
0.240500	1.843129
0.241000	1.842492
0.241500	1.843129
0.242000	1.842173
0.242500	1.843129
0.243000	1.843447
0.243500	1.842492
0.244000	1.843766
0.244500	1.843766
0.245000	1.842492
0.245500	1.843129
0.246000	1.843129
0.246500	1.843447
0.247000	1.844403
0.247500	1.842173
0.248000	1.842173
0.248500	1.843766
0.249000	1.842173
0.249500	1.842810
0.250000	1.843766
0.250500	1.842173
0.251000	1.842492
0.251500	1.843447
0.252000	1.843129
0.252500	1.843129
0.253000	1.843129
0.253500	1.842810
0.254000	1.843129
0.254500	1.843129
0.255000	1.842810
0.255500	1.843447
0.256000	1.842492
0.256500	1.844084
0.257000	1.843766
0.257500	1.842810
0.258000	1.843447
0.258500	1.842173
0.259000	1.843766
0.259500	1.843766
0.260000	1.842810
0.260500	1.843766
0.261000	1.843129
0.261500	1.842810
0.262000	1.843766
0.262500	1.842492
0.263000	1.843447
0.263500	1.843129
0.264000	1.842173
0.264500	1.843129
0.265000	1.842810
0.265500	1.842492
0.266000	1.843766
0.266500	1.842810
0.267000	1.842173
0.267500	1.843129
0.268000	1.842492
0.268500	1.844084
0.269000	1.843766
0.269500	1.842492
0.270000	1.842492
0.270500	1.843766
0.271000	1.843129
0.271500	1.843447
0.272000	1.843129
0.272500	1.844084
0.273000	1.843447
0.273500	1.842810
0.274000	1.843129
0.274500	1.843447
0.275000	1.842810
0.275500	1.843447
0.276000	1.842492
0.276500	1.842492
0.277000	1.842810
0.277500	1.842492
0.278000	1.842492
0.278500	1.843766
0.279000	1.841855
0.279500	1.843766
0.280000	1.843766
0.280500	1.843766
0.281000	1.842810
0.281500	1.842492
0.282000	1.843447
0.282500	1.844403
0.283000	1.843129
0.283500	1.843129
0.284000	1.843447
0.284500	1.842810
0.285000	1.843766
0.285500	1.843129
0.286000	1.842173
0.286500	1.843129
0.287000	1.843129
0.287500	1.842810
0.288000	1.843129
0.288500	1.842492
0.289000	1.842810
0.289500	1.843447
0.290000	1.843129
0.290500	1.842810
0.291000	1.843129
0.291500	1.842810
0.292000	1.843766
0.292500	1.842810
0.293000	1.843129
0.293500	1.843129
0.294000	1.843766
0.294500	1.843129
0.295000	1.842810
0.295500	1.842492
0.296000	1.843766
0.296500	1.843129
0.297000	1.843766
0.297500	1.843766
0.298000	1.843129
0.298500	1.843129
0.299000	1.844084
0.299500	1.842810
0.300000	1.842810
0.300500	1.843129
0.301000	1.843129
0.301500	1.843766
0.302000	1.843447
0.302500	1.843129
0.303000	1.844084
0.303500	1.844084
0.304000	1.843447
0.304500	1.843766
0.305000	1.842810
0.305500	1.843766
0.306000	1.844084
0.306500	1.843766
0.307000	1.843766
0.307500	1.843129
0.308000	1.843129
0.308500	1.844721
0.309000	1.843129
0.309500	1.843766
0.310000	1.843447
0.310500	1.842810
0.311000	1.844084
0.311500	1.843766
0.312000	1.842810
0.312500	1.843766
0.313000	1.844084
0.313500	1.844084
0.314000	1.843766
0.314500	1.842492
0.315000	1.843129
0.315500	1.844084
0.316000	1.843129
0.316500	1.843129
0.317000	1.843447
0.317500	1.843129
0.318000	1.844403
0.318500	1.843129
0.319000	1.843766
0.319500	1.843447
0.320000	1.842810
0.320500	1.843766
0.321000	1.843447
0.321500	1.842810
0.322000	1.843129
0.322500	1.843766
0.323000	1.843766
0.323500	1.843766
0.324000	1.842810
0.324500	1.842492
0.325000	1.844721
0.325500	1.843766
0.326000	1.843766
0.326500	1.844403
0.327000	1.843129
0.327500	1.844403
0.328000	1.844403
0.328500	1.843129
0.329000	1.844084
0.329500	1.843447
0.330000	1.844403
0.330500	1.844403
0.331000	1.843129
0.331500	1.844084
0.332000	1.843766
0.332500	1.843447
0.333000	1.844403
0.333500	1.843766
0.334000	1.842810
0.334500	1.843766
0.335000	1.843129
0.335500	1.844084
0.336000	1.843766
0.336500	1.843766
0.337000	1.843766
0.337500	1.844084
0.338000	1.842810
0.338500	1.843129
0.339000	1.844084
0.339500	1.843766
0.340000	1.843766
0.340500	1.843766
0.341000	1.843447
0.341500	1.844721
0.342000	1.843766
0.342500	1.843766
0.343000	1.844403
0.343500	1.843766
0.344000	1.844403
0.344500	1.843766
0.345000	1.843447
0.345500	1.844084
0.346000	1.843129
0.346500	1.843766
0.347000	1.844084
0.347500	1.842492
0.348000	1.843447
0.348500	1.844084
0.349000	1.843129
0.349500	1.844084
0.350000	1.842810
0.350500	1.843129
0.351000	1.843766
0.351500	1.843129
0.352000	1.843129
0.352500	1.842810
0.353000	1.843129
0.353500	1.844084
0.354000	1.843766
0.354500	1.843129
0.355000	1.843129
0.355500	1.842810
0.356000	1.843766
0.356500	1.843447
0.357000	1.841855
0.357500	1.843447
0.358000	1.843766
0.358500	1.842492
0.359000	1.844084
0.359500	1.843129
0.360000	1.842810
0.360500	1.843766
0.361000	1.841855
0.361500	1.843129
0.362000	1.842810
0.362500	1.842492
0.363000	1.842810
0.363500	1.842810
0.364000	1.842173
0.364500	1.842810
0.365000	1.843129
0.365500	1.842492
0.366000	1.843129
0.366500	1.842492
0.367000	1.843129
0.367500	1.843766
0.368000	1.842492
0.368500	1.842492
0.369000	1.842810
0.369500	1.842492
0.370000	1.842810
0.370500	1.842810
0.371000	1.842492
0.371500	1.843447
0.372000	1.842492
0.372500	1.842810
0.373000	1.842492
0.373500	1.842173
0.374000	1.843129
0.374500	1.843129
0.375000	1.843129
0.375500	1.843766
0.376000	1.842492
0.376500	1.842810
0.377000	1.843447
0.377500	1.842492
0.378000	1.842492
0.378500	1.841855
0.379000	1.842173
0.379500	1.842810
0.380000	1.842492
0.380500	1.842492
0.381000	1.842492
0.381500	1.842492
0.382000	1.843129
0.382500	1.842810
0.383000	1.841855
0.383500	1.842810
0.384000	1.843129
0.384500	1.842492
0.385000	1.842492
0.385500	1.843129
0.386000	1.842810
0.386500	1.844084
0.387000	1.842492
0.387500	1.842492
0.388000	1.842492
0.388500	1.842492
0.389000	1.843129
0.389500	1.843766
0.390000	1.842492
0.390500	1.842810
0.391000	1.842173
0.391500	1.842492
0.392000	1.843129
0.392500	1.842492
0.393000	1.843129
0.393500	1.843766
0.394000	1.841537
0.394500	1.843129
0.395000	1.842492
0.395500	1.841855
0.396000	1.843129
0.396500	1.842810
0.397000	1.841855
0.397500	1.842492
0.398000	1.842492
0.398500	1.842810
0.399000	1.842810
0.399500	1.842173
0.400000	1.842810
0.400500	1.842173
0.401000	1.842810
0.401500	1.842810
0.402000	1.841855
0.402500	1.843129
0.403000	1.843766
0.403500	1.843447
0.404000	1.842810
0.404500	1.842810
0.405000	1.842810
0.405500	1.844084
0.406000	1.843129
0.406500	1.842810
0.407000	1.842810
0.407500	1.842492
0.408000	1.843766
0.408500	1.843129
0.409000	1.842492
0.409500	1.842810
0.410000	1.844084
0.410500	1.843129
0.411000	1.844084
0.411500	1.842810
0.412000	1.842810
0.412500	1.844084
0.413000	1.843129
0.413500	1.842810
0.414000	1.843129
0.414500	1.842492
0.415000	1.843129
0.415500	1.843129
0.416000	1.843129
0.416500	1.844084
0.417000	1.843766
0.417500	1.843129
0.418000	1.843766
0.418500	1.842492
0.419000	1.843766
0.419500	1.844084
0.420000	1.842492
0.420500	1.843129
0.421000	1.842810
0.421500	1.842810
0.422000	1.844403
0.422500	1.843766
0.423000	1.842810
0.423500	1.842810
0.424000	1.843447
0.424500	1.844084
0.425000	1.843447
0.425500	1.843447
0.426000	1.842492
0.426500	1.842810
0.427000	1.842810
0.427500	1.843129
0.428000	1.843447
0.428500	1.843766
0.429000	1.843766
0.429500	1.842492
0.430000	1.843129
0.430500	1.843447
0.431000	1.842810
0.431500	1.844084
0.432000	1.842810
0.432500	1.842810
0.433000	1.843129
0.433500	1.842810
0.434000	1.843129
0.434500	1.843447
0.435000	1.842173
0.435500	1.844403
0.436000	1.843129
0.436500	1.843766
0.437000	1.843447
0.437500	1.842492
0.438000	1.842810
0.438500	1.843447
0.439000	1.842810
0.439500	1.842810
0.440000	1.843447
0.440500	1.842492
0.441000	1.843129
0.441500	1.843129
0.442000	1.843129
0.442500	1.843766
0.443000	1.842810
0.443500	1.843766
0.444000	1.843447
0.444500	1.842810
0.445000	1.843447
0.445500	1.844721
0.446000	1.842492
0.446500	1.843766
0.447000	1.842810
0.447500	1.843447
0.448000	1.844084
0.448500	1.843766
0.449000	1.842810
0.449500	1.843129
0.450000	1.842810
0.450500	1.843129
0.451000	1.843447
0.451500	1.842173
0.452000	1.843129
0.452500	1.842173
0.453000	1.843129
0.453500	1.842492
0.454000	1.842810
0.454500	1.842810
0.455000	1.843447
0.455500	1.843129
0.456000	1.842810
0.456500	1.842810
0.457000	1.842810
0.457500	1.844084
0.458000	1.843129
0.458500	1.842492
0.459000	1.843129
0.459500	1.843129
0.460000	1.843447
0.460500	1.843766
0.461000	1.842173
0.461500	1.842810
0.462000	1.842492
0.462500	1.842810
0.463000	1.843766
0.463500	1.843447
0.464000	1.842492
0.464500	1.843447
0.465000	1.842810
0.465500	1.843447
0.466000	1.843447
0.466500	1.843129
0.467000	1.843766
0.467500	1.843129
0.468000	1.842810
0.468500	1.842810
0.469000	1.842492
0.469500	1.843766
0.470000	1.843766
0.470500	1.842810
0.471000	1.843447
0.471500	1.843766
0.472000	1.842492
0.472500	1.842492
0.473000	1.842810
0.473500	1.842810
0.474000	1.844084
0.474500	1.842492
0.475000	1.842492
0.475500	1.843129
0.476000	1.841855
0.476500	1.843766
0.477000	1.843129
0.477500	1.842173
0.478000	1.843766
0.478500	1.842810
0.479000	1.842810
0.479500	1.843129
0.480000	1.842492
0.480500	1.842810
0.481000	1.844403
0.481500	1.842173
0.482000	1.843766
0.482500	1.843129
0.483000	1.842810
0.483500	1.843766
0.484000	1.843129
0.484500	1.842492
0.485000	1.843447
0.485500	1.842492
0.486000	1.843447
0.486500	1.843447
0.487000	1.842173
0.487500	1.843447
0.488000	1.842810
0.488500	1.843129
0.489000	1.844084
0.489500	1.843447
0.490000	1.843766
0.490500	1.843129
0.491000	1.843129
0.491500	1.843129
0.492000	1.843447
0.492500	1.843447
0.493000	1.844084
0.493500	1.843129
0.494000	1.843447
0.494500	1.842810
0.495000	1.843447
0.495500	1.844403
0.496000	1.844084
0.496500	1.843129
0.497000	1.843129
0.497500	1.843766
0.498000	1.842810
0.498500	1.843447
0.499000	1.843766
0.499500	1.843129
0.500000	1.844721
0.500500	1.843766
0.501000	1.842810
0.501500	1.843766
0.502000	1.843447
0.502500	1.843129
0.503000	1.844403
0.503500	1.842173
0.504000	1.844084
0.504500	1.843766
0.505000	1.843129
0.505500	1.843129
0.506000	1.843447
0.506500	1.843129
0.507000	1.844403
0.507500	1.843129
0.508000	1.843766
0.508500	1.843129
0.509000	1.843766
0.509500	1.844084
0.510000	1.844403
0.510500	1.843447
0.511000	1.843766
0.511500	1.844084
0.512000	1.843766
0.512500	1.844403
0.513000	1.843447
0.513500	1.843129
0.514000	1.844403
0.514500	1.843447
0.515000	1.844084
0.515500	1.843129
0.516000	1.843766
0.516500	1.844403
0.517000	1.844084
0.517500	1.843129
0.518000	1.844403
0.518500	1.844084
0.519000	1.843766
0.519500	1.844084
0.520000	1.843129
0.520500	1.844084
0.521000	1.844403
0.521500	1.843766
0.522000	1.844403
0.522500	1.843766
0.523000	1.844084
0.523500	1.844403
0.524000	1.843766
0.524500	1.844084
0.525000	1.843766
0.525500	1.843129
0.526000	1.844084
0.526500	1.843129
0.527000	1.843447
0.527500	1.844084
0.528000	1.843447
0.528500	1.843766
0.529000	1.844084
0.529500	1.842810
0.530000	1.843129
0.530500	1.844403
0.531000	1.844084
0.531500	1.843766
0.532000	1.843766
0.532500	1.843447
0.533000	1.844084
0.533500	1.844084
0.534000	1.843129
0.534500	1.843447
0.535000	1.843129
0.535500	1.844084
0.536000	1.842810
0.536500	1.842492
0.537000	1.844084
0.537500	1.844403
0.538000	1.844403
0.538500	1.844403
0.539000	1.843766
0.539500	1.843766
0.540000	1.844084
0.540500	1.843447
0.541000	1.843447
0.541500	1.843766
0.542000	1.843129
0.542500	1.844084
0.543000	1.843766
0.543500	1.842492
0.544000	1.843766
0.544500	1.842810
0.545000	1.844403
0.545500	1.843766
0.546000	1.842810
0.546500	1.843447
0.547000	1.843766
0.547500	1.843447
0.548000	1.844403
0.548500	1.843766
0.549000	1.843766
0.549500	1.844403
0.550000	1.842492
0.550500	1.843766
0.551000	1.842810
0.551500	1.842810
0.552000	1.843766
0.552500	1.843447
0.553000	1.842173
0.553500	1.842810
0.554000	1.842810
0.554500	1.843766
0.555000	1.843447
0.555500	1.842492
0.556000	1.843129
0.556500	1.844084
0.557000	1.843766
0.557500	1.843129
0.558000	1.843766
0.558500	1.843129
0.559000	1.843766
0.559500	1.843129
0.560000	1.842810
0.560500	1.843766
0.561000	1.842173
0.561500	1.843766
0.562000	1.843766
0.562500	1.842492
0.563000	1.842810
0.563500	1.843447
0.564000	1.842810
0.564500	1.843766
0.565000	1.842810
0.565500	1.842492
0.566000	1.844721
0.566500	1.843129
0.567000	1.843129
0.567500	1.842810
0.568000	1.842492
0.568500	1.844084
0.569000	1.843447
0.569500	1.842810
0.570000	1.843447
0.570500	1.843766
0.571000	1.843129
0.571500	1.843129
0.572000	1.842810
0.572500	1.842810
0.573000	1.843766
0.573500	1.843129
0.574000	1.843766
0.574500	1.843129
0.575000	1.843766
0.575500	1.844084
0.576000	1.843129
0.576500	1.842492
0.577000	1.843766
0.577500	1.842492
0.578000	1.843447
0.578500	1.843129
0.579000	1.842173
0.579500	1.843766
0.580000	1.842810
0.580500	1.842810
0.581000	1.842810
0.581500	1.842492
0.582000	1.843129
0.582500	1.843129
0.583000	1.842810
0.583500	1.842173
0.584000	1.842492
0.584500	1.842492
0.585000	1.843129
0.585500	1.843447
0.586000	1.842173
0.586500	1.842810
0.587000	1.842492
0.587500	1.842492
0.588000	1.843129
0.588500	1.842492
0.589000	1.843447
0.589500	1.843129
0.590000	1.842810
0.590500	1.842810
0.591000	1.842810
0.591500	1.842492
0.592000	1.843447
0.592500	1.842173
0.593000	1.842492
0.593500	1.842810
0.594000	1.842173
0.594500	1.843766
0.595000	1.843129
0.595500	1.842492
0.596000	1.843129
0.596500	1.842810
0.597000	1.842492
0.597500	1.843766
0.598000	1.842492
0.598500	1.842173
0.599000	1.842810
0.599500	1.841855
0.600000	1.843129
0.600500	1.842810
0.601000	1.842492
0.601500	1.842810
0.602000	1.842810
0.602500	1.842492
0.603000	1.843447
0.603500	1.842810
0.604000	1.843129
0.604500	1.843766
0.605000	1.841855
0.605500	1.842810
0.606000	1.843129
0.606500	1.842810
0.607000	1.843129
0.607500	1.842810
0.608000	1.842810
0.608500	1.843766
0.609000	1.843129
0.609500	1.842810
0.610000	1.843447
0.610500	1.842173
0.611000	1.844084
0.611500	1.843129
0.612000	1.842173
0.612500	1.842810
0.613000	1.842173
0.613500	1.842492
0.614000	1.843447
0.614500	1.842492
0.615000	1.843129
0.615500	1.843447
0.616000	1.842810
0.616500	1.843766
0.617000	1.842492
0.617500	1.842492
0.618000	1.844084
0.618500	1.841855
0.619000	1.842492
0.619500	1.842810
0.620000	1.841537
0.620500	1.843766
0.621000	1.842810
0.621500	1.841537
0.622000	1.842810
0.622500	1.842810
0.623000	1.842492
0.623500	1.842492
0.624000	1.841537
0.624500	1.842810
0.625000	1.842492
0.625500	1.842810
0.626000	1.843129
0.626500	1.842492
0.627000	1.842173
0.627500	1.842492
0.628000	1.842492
0.628500	1.842492
0.629000	1.843447
0.629500	1.841855
0.630000	1.842810
0.630500	1.842810
0.631000	1.841537
0.631500	1.842810
0.632000	1.842810
0.632500	1.842810
0.633000	1.842810
0.633500	1.841855
0.634000	1.842492
0.634500	1.843129
0.635000	1.841537
0.635500	1.842810
0.636000	1.842810
0.636500	1.843129
0.637000	1.843129
0.637500	1.842492
0.638000	1.841855
0.638500	1.842810
0.639000	1.841218
0.639500	1.842810
0.640000	1.843129
0.640500	1.842810
0.641000	1.842492
0.641500	1.843129
0.642000	1.842492
0.642500	1.843129
0.643000	1.842492
0.643500	1.843129
0.644000	1.843447
0.644500	1.842492
0.645000	1.842492
0.645500	1.842492
0.646000	1.841537
0.646500	1.843129
0.647000	1.842492
0.647500	1.841855
0.648000	1.842492
0.648500	1.842173
0.649000	1.842492
0.649500	1.842492
0.650000	1.841537
0.650500	1.842810
0.651000	1.843129
0.651500	1.842492
0.652000	1.842810
0.652500	1.843129
0.653000	1.842810
0.653500	1.843447
0.654000	1.843129
0.654500	1.842492
0.655000	1.842810
0.655500	1.842173
0.656000	1.843129
0.656500	1.842810
0.657000	1.841537
0.657500	1.843129
0.658000	1.842492
0.658500	1.842810
0.659000	1.842810
0.659500	1.841537
0.660000	1.842492
0.660500	1.842810
0.661000	1.841855
0.661500	1.843766
0.662000	1.843129
0.662500	1.842492
0.663000	1.843129
0.663500	1.842492
0.664000	1.842173
0.664500	1.842810
0.665000	1.842173
0.665500	1.842810
0.666000	1.842810
0.666500	1.842173
0.667000	1.843129
0.667500	1.842492
0.668000	1.842492
0.668500	1.842810
0.669000	1.841855
0.669500	1.842492
0.670000	1.842810
0.670500	1.842492
0.671000	1.841855
0.671500	1.842492
0.672000	1.842810
0.672500	1.843447
0.673000	1.842492
0.673500	1.842173
0.674000	1.842810
0.674500	1.842810
0.675000	1.843129
0.675500	1.843129
0.676000	1.841855
0.676500	1.842810
0.677000	1.843766
0.677500	1.843129
0.678000	1.843766
0.678500	1.843129
0.679000	1.842492
0.679500	1.843129
0.680000	1.842492
0.680500	1.842492
0.681000	1.842810
0.681500	1.842173
0.682000	1.842492
0.682500	1.842810
0.683000	1.842492
0.683500	1.843129
0.684000	1.843129
0.684500	1.842173
0.685000	1.842492
0.685500	1.842492
0.686000	1.842810
0.686500	1.843447
0.687000	1.842810
0.687500	1.843129
0.688000	1.843129
0.688500	1.842492
0.689000	1.843447
0.689500	1.842810
0.690000	1.842492
0.690500	1.842492
0.691000	1.842492
0.691500	1.843129
0.692000	1.844084
0.692500	1.841855
0.693000	1.842810
0.693500	1.842810
0.694000	1.842810
0.694500	1.843129
0.695000	1.842810
0.695500	1.841855
0.696000	1.843129
0.696500	1.842173
0.697000	1.842492
0.697500	1.842492
0.698000	1.841855
0.698500	1.843447
0.699000	1.842810
0.699500	1.842173
0.700000	1.843129
0.700500	1.842810
0.701000	1.842492
0.701500	1.842810
0.702000	1.842173
0.702500	1.842492
0.703000	1.843447
0.703500	1.841855
0.704000	1.843129
0.704500	1.842492
0.705000	1.842173
0.705500	1.843129
0.706000	1.843129
0.706500	1.842810
0.707000	1.842173
0.707500	1.842492
0.708000	1.842810
0.708500	1.843129
0.709000	1.841537
0.709500	1.843447
0.710000	1.842810
0.710500	1.843129
0.711000	1.842810
0.711500	1.842173
0.712000	1.843129
0.712500	1.843766
0.713000	1.841855
0.713500	1.843129
0.714000	1.842492
0.714500	1.842810
0.715000	1.843766
0.715500	1.842810
0.716000	1.842492
0.716500	1.842810
0.717000	1.843129
0.717500	1.842810
0.718000	1.842810
0.718500	1.842173
0.719000	1.842810
0.719500	1.843129
0.720000	1.843447
0.720500	1.844084
0.721000	1.842173
0.721500	1.842810
0.722000	1.844721
0.722500	1.843766
0.723000	1.843447
0.723500	1.843129
0.724000	1.842492
0.724500	1.844403
0.725000	1.844084
0.725500	1.842810
0.726000	1.843447
0.726500	1.843447
0.727000	1.843447
0.727500	1.843447
0.728000	1.842810
0.728500	1.843766
0.729000	1.844403
0.729500	1.843766
0.730000	1.843766
0.730500	1.843129
0.731000	1.843766
0.731500	1.844403
0.732000	1.843766
0.732500	1.843766
0.733000	1.843766
0.733500	1.843447
0.734000	1.843766
0.734500	1.844403
0.735000	1.843129
0.735500	1.843129
0.736000	1.844084
0.736500	1.844084
0.737000	1.843766
0.737500	1.843766
0.738000	1.843766
0.738500	1.844721
0.739000	1.843766
0.739500	1.844084
0.740000	1.843766
0.740500	1.843766
0.741000	1.843766
0.741500	1.843447
0.742000	1.842810
0.742500	1.844403
0.743000	1.844403
0.743500	1.844084
0.744000	1.844721
0.744500	1.842492
0.745000	1.844084
0.745500	1.844721
0.746000	1.843766
0.746500	1.844403
0.747000	1.844403
0.747500	1.843766
0.748000	1.844721
0.748500	1.844084
0.749000	1.844084
0.749500	1.844084
0.750000	1.843129
0.750500	1.844403
0.751000	1.843766
0.751500	1.843447
0.752000	1.843129
0.752500	1.843129
0.753000	1.843766
0.753500	1.843766
0.754000	1.842810
0.754500	1.843766
0.755000	1.844403
0.755500	1.843766
0.756000	1.843766
0.756500	1.843766
0.757000	1.843129
0.757500	1.843766
0.758000	1.843447
0.758500	1.842492
0.759000	1.843129
0.759500	1.842810
0.760000	1.843766
0.760500	1.843766
0.761000	1.842810
0.761500	1.844084
0.762000	1.843447
0.762500	1.842810
0.763000	1.843447
0.763500	1.842492
0.764000	1.843129
0.764500	1.843766
0.765000	1.843447
0.765500	1.843447
0.766000	1.843129
0.766500	1.842492
0.767000	1.844084
0.767500	1.843447
0.768000	1.842492
0.768500	1.844084
0.769000	1.842810
0.769500	1.843766
0.770000	1.843766
0.770500	1.842492
0.771000	1.843447
0.771500	1.843447
0.772000	1.842810
0.772500	1.844084
0.773000	1.842810
0.773500	1.843447
0.774000	1.844084
0.774500	1.843129
0.775000	1.843129
0.775500	1.843129
0.776000	1.842810
0.776500	1.844403
0.777000	1.842810
0.777500	1.842492
0.778000	1.842492
0.778500	1.843766
0.779000	1.843129
0.779500	1.843447
0.780000	1.843447
0.780500	1.843129
0.781000	1.843447
0.781500	1.842810
0.782000	1.842810
0.782500	1.842492
0.783000	1.842810
0.783500	1.843766
0.784000	1.842810
0.784500	1.842492
0.785000	1.842492
0.785500	1.842810
0.786000	1.843129
0.786500	1.843766
0.787000	1.843129
0.787500	1.843447
0.788000	1.844084
0.788500	1.842810
0.789000	1.842492
0.789500	1.842810
0.790000	1.842492
0.790500	1.843447
0.791000	1.842810
0.791500	1.842492
0.792000	1.843129
0.792500	1.842492
0.793000	1.843766
0.793500	1.842173
0.794000	1.842492
0.794500	1.842810
0.795000	1.842810
0.795500	1.842492
0.796000	1.843129
0.796500	1.842810
0.797000	1.842810
0.797500	1.843129
0.798000	1.842492
0.798500	1.842810
0.799000	1.842810
0.799500	1.842810
0.800000	1.844084
0.800500	1.843766
0.801000	1.842492
0.801500	1.843766
0.802000	1.842492
0.802500	1.843129
0.803000	1.842810
0.803500	1.843129
0.804000	1.843129
0.804500	1.843129
0.805000	1.843129
0.805500	1.843766
0.806000	1.843129
0.806500	1.843766
0.807000	1.844403
0.807500	1.843766
0.808000	1.844721
0.808500	1.843766
0.809000	1.843447
0.809500	1.844084
0.810000	1.843129
0.810500	1.842173
0.811000	1.844403
0.811500	1.844084
0.812000	1.843766
0.812500	1.844403
0.813000	1.843129
0.813500	1.843766
0.814000	1.843766
0.814500	1.844403
0.815000	1.844084
0.815500	1.844403
0.816000	1.844403
0.816500	1.844721
0.817000	1.843766
0.817500	1.843129
0.818000	1.844084
0.818500	1.843766
0.819000	1.843447
0.819500	1.844084
0.820000	1.843766
0.820500	1.843766
0.821000	1.843129
0.821500	1.843766
0.822000	1.844403
0.822500	1.843766
0.823000	1.844084
0.823500	1.844403
0.824000	1.844403
0.824500	1.843766
0.825000	1.844084
0.825500	1.844084
0.826000	1.844721
0.826500	1.844084
0.827000	1.843766
0.827500	1.844084
0.828000	1.844084
0.828500	1.844084
0.829000	1.845040
0.829500	1.844084
0.830000	1.843766
0.830500	1.844084
0.831000	1.844084
0.831500	1.843766
0.832000	1.843766
0.832500	1.844721
0.833000	1.845040
0.833500	1.844403
0.834000	1.843447
0.834500	1.843447
0.835000	1.843447
0.835500	1.844721
0.836000	1.843766
0.836500	1.843129
0.837000	1.844721
0.837500	1.844403
0.838000	1.844084
0.838500	1.844403
0.839000	1.843129
0.839500	1.843766
0.840000	1.844084
0.840500	1.844084
0.841000	1.843766
0.841500	1.843766
0.842000	1.843129
0.842500	1.844721
0.843000	1.844084
0.843500	1.843766
0.844000	1.844084
0.844500	1.843447
0.845000	1.843766
0.845500	1.844084
0.846000	1.843766
0.846500	1.844084
0.847000	1.844084
0.847500	1.843766
0.848000	1.844403
0.848500	1.844084
0.849000	1.843129
0.849500	1.844403
0.850000	1.843766
0.850500	1.843766
0.851000	1.843766
0.851500	1.843129
0.852000	1.844403
0.852500	1.844403
0.853000	1.843447
0.853500	1.843766
0.854000	1.843447
0.854500	1.844084
0.855000	1.844084
0.855500	1.843447
0.856000	1.843766
0.856500	1.844403
0.857000	1.844721
0.857500	1.844084
0.858000	1.844084
0.858500	1.843766
0.859000	1.844721
0.859500	1.843766
0.860000	1.842810
0.860500	1.844403
0.861000	1.843129
0.861500	1.843766
0.862000	1.843129
0.862500	1.842810
0.863000	1.843129
0.863500	1.843766
0.864000	1.844084
0.864500	1.844084
0.865000	1.843129
0.865500	1.843447
0.866000	1.844084
0.866500	1.843447
0.867000	1.843766
0.867500	1.843447
0.868000	1.843447
0.868500	1.844084
0.869000	1.843129
0.869500	1.842492
0.870000	1.843129
0.870500	1.843129
0.871000	1.843129
0.871500	1.843447
0.872000	1.843766
0.872500	1.843129
0.873000	1.843766
0.873500	1.843766
0.874000	1.844084
0.874500	1.842810
0.875000	1.842173
0.875500	1.844084
0.876000	1.842810
0.876500	1.843129
0.877000	1.843447
0.877500	1.843129
0.878000	1.844084
0.878500	1.843129
0.879000	1.842810
0.879500	1.844084
0.880000	1.843766
0.880500	1.843129
0.881000	1.843129
0.881500	1.842173
0.882000	1.843129
0.882500	1.844084
0.883000	1.842810
0.883500	1.843447
0.884000	1.843129
0.884500	1.843129
0.885000	1.843129
0.885500	1.843766
0.886000	1.842810
0.886500	1.843129
0.887000	1.842810
0.887500	1.843766
0.888000	1.843129
0.888500	1.842492
0.889000	1.844084
0.889500	1.843766
0.890000	1.843447
0.890500	1.843766
0.891000	1.842173
0.891500	1.842810
0.892000	1.843766
0.892500	1.842810
0.893000	1.843447
0.893500	1.843766
0.894000	1.842492
0.894500	1.843447
0.895000	1.843447
0.895500	1.841537
0.896000	1.843129
0.896500	1.842810
0.897000	1.843129
0.897500	1.843766
0.898000	1.842810
0.898500	1.842492
0.899000	1.844084
0.899500	1.843129
0.900000	1.843129
0.900500	1.843129
0.901000	1.842810
0.901500	1.845040
0.902000	1.842810
0.902500	1.843129
0.903000	1.843129
0.903500	1.842492
0.904000	1.843766
0.904500	1.843447
0.905000	1.843129
0.905500	1.844084
0.906000	1.843129
0.906500	1.843766
0.907000	1.844084
0.907500	1.843129
0.908000	1.844721
0.908500	1.844084
0.909000	1.843766
0.909500	1.843447
0.910000	1.843447
0.910500	1.843447
0.911000	1.843766
0.911500	1.843129
0.912000	1.843447
0.912500	1.843129
0.913000	1.842492
0.913500	1.844084
0.914000	1.843447
0.914500	1.842810
0.915000	1.843766
0.915500	1.844084
0.916000	1.842810
0.916500	1.844084
0.917000	1.842810
0.917500	1.843129
0.918000	1.843766
0.918500	1.843129
0.919000	1.842492
0.919500	1.843129
0.920000	1.843129
0.920500	1.844084
0.921000	1.843129
0.921500	1.842810
0.922000	1.843766
0.922500	1.842810
0.923000	1.843766
0.923500	1.843447
0.924000	1.842810
0.924500	1.842810
0.925000	1.843766
0.925500	1.842810
0.926000	1.843447
0.926500	1.843129
0.927000	1.842810
0.927500	1.843447
0.928000	1.843447
0.928500	1.842492
0.929000	1.843129
0.929500	1.843129
0.930000	1.843766
0.930500	1.843766
0.931000	1.842492
0.931500	1.843766
0.932000	1.843129
0.932500	1.843447
0.933000	1.844084
0.933500	1.843129
0.934000	1.843129
0.934500	1.843129
0.935000	1.842492
0.935500	1.843129
0.936000	1.842810
0.936500	1.842810
0.937000	1.844084
0.937500	1.844084
0.938000	1.842173
0.938500	1.843766
0.939000	1.842492
0.939500	1.842492
0.940000	1.843129
0.940500	1.842173
0.941000	1.843447
0.941500	1.843766
0.942000	1.842810
0.942500	1.843766
0.943000	1.842810
0.943500	1.842492
0.944000	1.843766
0.944500	1.842492
0.945000	1.842173
0.945500	1.843447
0.946000	1.842492
0.946500	1.843766
0.947000	1.843129
0.947500	1.842492
0.948000	1.843447
0.948500	1.842810
0.949000	1.843447
0.949500	1.844403
0.950000	1.842810
0.950500	1.843129
0.951000	1.843447
0.951500	1.843129
0.952000	1.843129
0.952500	1.842810
0.953000	1.843129
0.953500	1.844084
0.954000	1.842810
0.954500	1.842173
0.955000	1.843129
0.955500	1.842492
0.956000	1.843766
0.956500	1.843129
0.957000	1.842810
0.957500	1.842810
0.958000	1.843447
0.958500	1.842810
0.959000	1.844084
0.959500	1.843766
0.960000	1.843129
0.960500	1.844084
0.961000	1.842492
0.961500	1.842492
0.962000	1.842810
0.962500	1.842492
0.963000	1.843447
0.963500	1.843129
0.964000	1.841855
0.964500	1.843447
0.965000	1.843129
0.965500	1.842810
0.966000	1.842173
0.966500	1.842492
0.967000	1.842810
0.967500	1.842492
0.968000	1.842810
0.968500	1.842810
0.969000	1.842492
0.969500	1.843129
0.970000	1.844084
0.970500	1.842810
0.971000	1.842492
0.971500	1.843129
0.972000	1.842810
0.972500	1.843766
0.973000	1.842810
0.973500	1.843129
0.974000	1.843447
0.974500	1.842810
0.975000	1.843766
0.975500	1.844084
0.976000	1.843129
0.976500	1.842810
0.977000	1.843447
0.977500	1.842810
0.978000	1.842810
0.978500	1.843447
0.979000	1.843129
0.979500	1.843766
0.980000	1.843129
0.980500	1.841855
0.981000	1.843766
0.981500	1.843129
0.982000	1.843766
0.982500	1.843766
0.983000	1.842492
0.983500	1.843129
0.984000	1.843766
0.984500	1.842810
0.985000	1.843766
0.985500	1.842810
0.986000	1.843129
0.986500	1.843766
0.987000	1.843766
0.987500	1.843447
0.988000	1.843129
0.988500	1.842810
0.989000	1.844084
0.989500	1.842492
0.990000	1.842492
0.990500	1.843129
0.991000	1.842492
0.991500	1.843129
0.992000	1.843129
0.992500	1.842492
0.993000	1.843129
0.993500	1.843129
0.994000	1.842810
0.994500	1.843766
0.995000	1.842492
0.995500	1.841855
0.996000	1.843129
0.996500	1.842810
0.997000	1.842810
0.997500	1.842173
0.998000	1.842173
0.998500	1.843766
0.999000	1.842810
0.999500	1.841855
1.000000	1.842810
1.000500	1.842810
1.001000	1.843129
1.001500	1.843766
1.002000	1.841855
1.002500	1.843129
1.003000	1.842810
1.003500	1.842492
1.004000	1.842810
1.004500	1.842173
1.005000	1.842810
1.005500	1.843447
1.006000	1.842492
1.006500	1.842810
1.007000	1.842173
1.007500	1.842173
1.008000	1.844403
1.008500	1.842810
1.009000	1.842173
1.009500	1.843129
1.010000	1.842173
1.010500	1.842810
1.011000	1.843129
1.011500	1.841855
1.012000	1.843129
1.012500	1.843129
1.013000	1.842492
1.013500	1.842810
1.014000	1.842492
1.014500	1.842810
1.015000	1.844084
1.015500	1.842810
1.016000	1.842492
1.016500	1.842492
1.017000	1.842492
1.017500	1.843766
1.018000	1.842810
1.018500	1.841855
1.019000	1.843766
1.019500	1.842810
1.020000	1.842492
1.020500	1.843129
1.021000	1.842810
1.021500	1.842810
1.022000	1.843766
1.022500	1.842173
1.023000	1.843129
1.023500	1.842492
1.024000	1.842810
1.024500	1.843766
1.025000	1.842810
1.025500	1.842810
1.026000	1.843129
1.026500	1.842492
1.027000	1.843447
1.027500	1.842810
1.028000	1.842173
1.028500	1.842492
1.029000	1.843129
1.029500	1.842810
1.030000	1.843129
1.030500	1.842173
1.031000	1.842492
1.031500	1.843129
1.032000	1.842173
1.032500	1.842810
1.033000	1.842492
1.033500	1.841855
1.034000	1.843129
1.034500	1.843129
1.035000	1.841855
1.035500	1.842810
1.036000	1.842492
1.036500	1.843447
1.037000	1.843766
1.037500	1.842173
1.038000	1.842810
1.038500	1.843766
1.039000	1.843129
1.039500	1.843766
1.040000	1.842492
1.040500	1.842173
1.041000	1.843129
1.041500	1.842810
1.042000	1.842173
1.042500	1.842492
1.043000	1.842492
1.043500	1.843129
1.044000	1.843129
1.044500	1.842492
1.045000	1.843129
1.045500	1.843129
1.046000	1.842810
1.046500	1.843129
1.047000	1.842810
1.047500	1.842173
1.048000	1.842492
1.048500	1.842810
1.049000	1.842492
1.049500	1.843129
1.050000	1.841537
1.050500	1.842810
1.051000	1.842492
1.051500	1.842492
1.052000	1.842492
1.052500	1.842492
1.053000	1.842810
1.053500	1.843447
1.054000	1.841855
1.054500	1.842810
1.055000	1.842492
1.055500	1.842810
1.056000	1.842810
1.056500	1.841855
1.057000	1.842492
1.057500	1.843447
1.058000	1.842492
1.058500	1.842173
1.059000	1.842810
1.059500	1.842492
1.060000	1.843447
1.060500	1.842810
1.061000	1.841855
1.061500	1.842810
1.062000	1.842810
1.062500	1.842173
1.063000	1.843447
1.063500	1.842492
1.064000	1.842810
1.064500	1.842810
1.065000	1.842492
1.065500	1.843129
1.066000	1.842492
1.066500	1.842492
1.067000	1.844084
1.067500	1.842810
1.068000	1.842492
1.068500	1.843129
1.069000	1.842492
1.069500	1.843129
1.070000	1.843129
1.070500	1.842173
1.071000	1.842810
1.071500	1.843129
1.072000	1.842492
1.072500	1.843129
1.073000	1.842492
1.073500	1.842492
1.074000	1.843766
1.074500	1.843129
1.075000	1.842173
1.075500	1.842492
1.076000	1.842810
1.076500	1.843766
1.077000	1.842810
1.077500	1.842492
1.078000	1.843129
1.078500	1.842173
1.079000	1.843129
1.079500	1.843447
1.080000	1.841218
1.080500	1.842810
1.081000	1.842173
1.081500	1.842810
1.082000	1.843766
1.082500	1.842492
1.083000	1.842492
1.083500	1.842492
1.084000	1.842492
1.084500	1.842810
1.085000	1.842173
1.085500	1.842173
1.086000	1.843129
1.086500	1.842810
1.087000	1.841855
1.087500	1.842810
1.088000	1.842810
1.088500	1.843447
1.089000	1.842492
1.089500	1.842810
1.090000	1.842810
1.090500	1.842173
1.091000	1.842492
1.091500	1.843447
1.092000	1.842173
1.092500	1.842492
1.093000	1.844084
1.093500	1.842492
1.094000	1.842492
1.094500	1.842810
1.095000	1.842810
1.095500	1.843129
1.096000	1.842492
1.096500	1.841855
1.097000	1.842810
1.097500	1.842810
1.098000	1.842810
1.098500	1.842810
1.099000	1.841855
1.099500	1.843447
1.100000	1.842810
1.100500	1.842173
1.101000	1.843129
1.101500	1.842173
1.102000	1.842810
1.102500	1.843766
1.103000	1.842173
1.103500	1.841537
1.104000	1.842173
1.104500	1.842492
1.105000	1.843129
1.105500	1.842810
1.106000	1.842173
1.106500	1.843129
1.107000	1.842492
1.107500	1.843129
1.108000	1.843129
1.108500	1.842492
1.109000	1.842810
1.109500	1.843766
1.110000	1.842810
1.110500	1.843129
1.111000	1.842492
1.111500	1.842810
1.112000	1.843129
1.112500	1.842810
1.113000	1.843766
1.113500	1.842810
1.114000	1.843129
1.114500	1.842810
1.115000	1.843129
1.115500	1.841537
1.116000	1.842492
1.116500	1.843766
1.117000	1.842810
1.117500	1.843766
1.118000	1.842810
1.118500	1.842810
1.119000	1.844403
1.119500	1.843766
1.120000	1.843129
1.120500	1.843129
1.121000	1.842810
1.121500	1.844403
1.122000	1.843129
1.122500	1.842810
1.123000	1.843129
1.123500	1.842173
1.124000	1.843766
1.124500	1.843766
1.125000	1.842810
1.125500	1.843766
1.126000	1.843447
1.126500	1.843447
1.127000	1.843766
1.127500	1.842492
1.128000	1.843447
1.128500	1.844721
1.129000	1.843766
1.129500	1.843766
1.130000	1.843129
1.130500	1.842810
1.131000	1.843129
1.131500	1.844403
1.132000	1.843447
1.132500	1.843766
1.133000	1.843129
1.133500	1.843766
1.134000	1.844403
1.134500	1.842810
1.135000	1.843766
1.135500	1.844403
1.136000	1.843129
1.136500	1.843766
1.137000	1.843766
1.137500	1.843129
1.138000	1.843766
1.138500	1.843447
1.139000	1.842810
1.139500	1.844084
1.140000	1.844084
1.140500	1.843766
1.141000	1.843766
1.141500	1.843129
1.142000	1.843129
1.142500	1.843766
1.143000	1.843447
1.143500	1.844403
1.144000	1.842492
1.144500	1.843447
1.145000	1.844084
1.145500	1.843766
1.146000	1.843766
1.146500	1.843766
1.147000	1.843129
1.147500	1.843766
1.148000	1.843129
1.148500	1.843129
1.149000	1.843766
1.149500	1.843766
1.150000	1.844403
1.150500	1.844084
1.151000	1.843129
1.151500	1.843766
1.152000	1.844084
1.152500	1.844084
1.153000	1.844084
1.153500	1.844084
1.154000	1.843766
1.154500	1.844084
1.155000	1.844084
1.155500	1.843766
1.156000	1.844084
1.156500	1.843447
1.157000	1.844084
1.157500	1.843447
1.158000	1.843129
1.158500	1.844084
1.159000	1.843129
1.159500	1.843447
1.160000	1.843766
1.160500	1.843129
1.161000	1.843129
1.161500	1.844403
1.162000	1.843766
1.162500	1.843447
1.163000	1.843766
1.163500	1.843766
1.164000	1.843766
1.164500	1.843129
1.165000	1.843766
1.165500	1.842492
1.166000	1.843447
1.166500	1.844084
1.167000	1.843766
1.167500	1.842810
1.168000	1.843766
1.168500	1.843129
1.169000	1.844403
1.169500	1.843766
1.170000	1.843129
1.170500	1.843766
1.171000	1.843766
1.171500	1.843447
1.172000	1.843766
1.172500	1.842810
1.173000	1.842492
1.173500	1.844403
1.174000	1.843129
1.174500	1.843766
1.175000	1.842810
1.175500	1.844084
1.176000	1.844084
1.176500	1.842810
1.177000	1.842492
1.177500	1.842810
1.178000	1.842810
1.178500	1.843766
1.179000	1.843129
1.179500	1.842492
1.180000	1.843129
1.180500	1.843129
1.181000	1.842173
1.181500	1.843129
1.182000	1.841855
1.182500	1.842810
1.183000	1.843129
1.183500	1.842173
1.184000	1.842492
1.184500	1.842492
1.185000	1.843129
1.185500	1.843447
1.186000	1.842173
1.186500	1.842173
1.187000	1.842173
1.187500	1.842810
1.188000	1.842810
1.188500	1.843129
1.189000	1.842810
1.189500	1.842492
1.190000	1.843447
1.190500	1.841537
1.191000	1.842810
1.191500	1.842492
1.192000	1.842492
1.192500	1.843129
1.193000	1.842173
1.193500	1.842492
1.194000	1.842810
1.194500	1.842492
1.195000	1.843766
1.195500	1.842492
1.196000	1.842173
1.196500	1.842810
1.197000	1.842810
1.197500	1.843447
1.198000	1.843129
1.198500	1.842173
1.199000	1.843129
1.199500	1.842810
1.200000	1.843129
1.200500	1.843129
1.201000	1.841855
1.201500	1.843129
1.202000	1.843766
1.202500	1.843129
1.203000	1.842492
1.203500	1.842173
1.204000	1.842173
1.204500	1.842810
1.205000	1.842492
1.205500	1.842810
1.206000	1.843766
1.206500	1.843766
1.207000	1.843129
1.207500	1.843447
1.208000	1.842492
1.208500	1.842810
1.209000	1.843766
1.209500	1.843129
1.210000	1.843129
1.210500	1.842492
1.211000	1.843129
1.211500	1.843766
1.212000	1.842492
1.212500	1.842173
1.213000	1.842810
1.213500	1.843129
1.214000	1.843447
1.214500	1.843766
1.215000	1.842810
1.215500	1.844084
1.216000	1.843766
1.216500	1.843447
1.217000	1.843129
1.217500	1.842810
1.218000	1.842810
1.218500	1.844084
1.219000	1.842492
1.219500	1.843129
1.220000	1.843766
1.220500	1.843129
1.221000	1.844403
1.221500	1.843129
1.222000	1.842810
1.222500	1.843766
1.223000	1.843766
1.223500	1.844084
1.224000	1.843766
1.224500	1.843129
1.225000	1.844403
1.225500	1.843766
1.226000	1.843766
1.226500	1.843766
1.227000	1.842810
1.227500	1.843447
1.228000	1.843766
1.228500	1.843766
1.229000	1.843766
1.229500	1.843447
1.230000	1.843447
1.230500	1.844721
1.231000	1.844403
1.231500	1.842492
1.232000	1.843766
1.232500	1.843766
1.233000	1.844084
1.233500	1.843766
1.234000	1.844084
1.234500	1.843447
1.235000	1.844403
1.235500	1.843766
1.236000	1.843766
1.236500	1.843129
1.237000	1.843129
1.237500	1.844403
1.238000	1.843129
1.238500	1.843447
1.239000	1.842810
1.239500	1.842492
1.240000	1.844084
1.240500	1.843766
1.241000	1.842492
1.241500	1.843129
1.242000	1.843766
1.242500	1.843766
1.243000	1.843766
1.243500	1.843129
1.244000	1.843766
1.244500	1.844403
1.245000	1.844084
1.245500	1.844403
1.246000	1.843766
1.246500	1.843766
1.247000	1.844403
1.247500	1.843129
1.248000	1.843766
1.248500	1.843129
1.249000	1.842810
1.249500	1.844084
1.250000	1.843766
1.250500	1.843129
1.251000	1.843766
1.251500	1.843766
1.252000	1.843766
1.252500	1.843766
1.253000	1.843766
1.253500	1.843766
1.254000	1.844403
1.254500	1.843766
1.255000	1.843766
1.255500	1.843447
1.256000	1.843447
1.256500	1.844084
1.257000	1.843129
1.257500	1.842492
1.258000	1.844084
1.258500	1.843447
1.259000	1.843766
1.259500	1.843129
1.260000	1.842492
1.260500	1.844084
1.261000	1.843129
1.261500	1.843129
1.262000	1.843129
1.262500	1.843129
1.263000	1.842810
1.263500	1.844084
1.264000	1.843129
1.264500	1.843129
1.265000	1.843129
1.265500	1.842492
1.266000	1.843129
1.266500	1.843447
1.267000	1.842810
1.267500	1.843766
1.268000	1.842492
1.268500	1.843129
1.269000	1.843129
1.269500	1.841855
1.270000	1.842492
1.270500	1.842173
1.271000	1.843447
1.271500	1.843129
1.272000	1.842173
1.272500	1.843129
1.273000	1.844084
1.273500	1.842492
1.274000	1.842492
1.274500	1.842810
1.275000	1.843129
1.275500	1.843129
1.276000	1.843129
1.276500	1.842492
1.277000	1.843129
1.277500	1.842810
1.278000	1.843129
1.278500	1.843766
1.279000	1.842492
1.279500	1.842492
1.280000	1.843129
1.280500	1.843129
1.281000	1.843129
1.281500	1.841855
1.282000	1.842810
1.282500	1.844084
1.283000	1.842492
1.283500	1.842173
1.284000	1.842492
1.284500	1.842492
1.285000	1.843766
1.285500	1.843766
1.286000	1.841537
1.286500	1.843447
1.287000	1.842492
1.287500	1.843129
1.288000	1.843447
1.288500	1.842492
1.289000	1.842173
1.289500	1.843766
1.290000	1.842173
1.290500	1.843766
1.291000	1.842173
1.291500	1.842492
1.292000	1.843766
1.292500	1.843129
1.293000	1.841855
1.293500	1.842810
1.294000	1.842492
1.294500	1.843129
1.295000	1.843447
1.295500	1.842492
1.296000	1.843766
1.296500	1.842492
1.297000	1.843129
1.297500	1.843766
1.298000	1.842492
1.298500	1.843129
1.299000	1.843766
1.299500	1.843129
1.300000	1.842492
1.300500	1.842810
1.301000	1.842810
1.301500	1.843447
1.302000	1.843129
1.302500	1.842810
1.303000	1.843447
1.303500	1.842810
1.304000	1.843447
1.304500	1.842810
1.305000	1.842173
1.305500	1.843766
1.306000	1.843129
1.306500	1.843129
1.307000	1.842810
1.307500	1.842810
1.308000	1.842173
1.308500	1.844084
1.309000	1.843129
1.309500	1.842810
1.310000	1.844084
1.310500	1.842810
1.311000	1.843766
1.311500	1.843129
1.312000	1.841855
1.312500	1.843129
1.313000	1.843129
1.313500	1.843766
1.314000	1.843766
1.314500	1.842492
1.315000	1.843447
1.315500	1.843129
1.316000	1.842810
1.316500	1.843129
1.317000	1.842492
1.317500	1.843766
1.318000	1.844721
1.318500	1.843129
1.319000	1.842492
1.319500	1.843129
1.320000	1.843447
1.320500	1.844084
1.321000	1.842492
1.321500	1.842173
1.322000	1.843766
1.322500	1.844084
1.323000	1.843766
1.323500	1.844084
1.324000	1.843129
1.324500	1.843129
1.325000	1.843766
1.325500	1.843129
1.326000	1.843129
1.326500	1.843766
1.327000	1.843129
1.327500	1.844403
1.328000	1.842810
1.328500	1.842492
1.329000	1.843129
1.329500	1.843766
1.330000	1.844403
1.330500	1.843447
1.331000	1.842173
1.331500	1.843766
1.332000	1.843766
1.332500	1.843766
1.333000	1.844084
1.333500	1.843129
1.334000	1.842810
1.334500	1.844403
1.335000	1.843129
1.335500	1.843766
1.336000	1.843129
1.336500	1.843129
1.337000	1.843447
1.337500	1.843129
1.338000	1.843129
1.338500	1.843129
1.339000	1.842810
1.339500	1.843129
1.340000	1.842810
1.340500	1.842492
1.341000	1.843766
1.341500	1.843129
1.342000	1.843447
1.342500	1.843129
1.343000	1.842810
1.343500	1.842810
1.344000	1.844084
1.344500	1.842492
1.345000	1.843129
1.345500	1.843129
1.346000	1.842810
1.346500	1.843129
1.347000	1.843766
1.347500	1.842492
1.348000	1.842810
1.348500	1.841855
1.349000	1.842492
1.349500	1.843129
1.350000	1.842492
1.350500	1.842492
1.351000	1.842492
1.351500	1.842492
1.352000	1.842810
1.352500	1.842173
1.353000	1.842492
1.353500	1.843129
1.354000	1.843129
1.354500	1.842810
1.355000	1.843447
1.355500	1.842492
1.356000	1.842810
1.356500	1.842810
1.357000	1.841537
1.357500	1.843129
1.358000	1.842810
1.358500	1.843447
1.359000	1.843129
1.359500	1.842173
1.360000	1.843129
1.360500	1.843129
1.361000	1.842492
1.361500	1.843129
1.362000	1.842810
1.362500	1.843129
1.363000	1.844084
1.363500	1.842173
1.364000	1.842492
1.364500	1.842810
1.365000	1.842173
1.365500	1.843129
1.366000	1.843447
1.366500	1.842810
1.367000	1.843129
1.367500	1.843129
1.368000	1.843129
1.368500	1.843447
1.369000	1.842173
1.369500	1.843129
1.370000	1.843129
1.370500	1.843129
1.371000	1.843129
1.371500	1.843129
1.372000	1.842810
1.372500	1.843766
1.373000	1.842810
1.373500	1.842173
1.374000	1.842492
1.374500	1.842173
1.375000	1.842173
1.375500	1.843766
1.376000	1.842492
1.376500	1.842492
1.377000	1.843129
1.377500	1.843129
1.378000	1.843766
1.378500	1.842810
1.379000	1.842492
1.379500	1.843447
1.380000	1.843129
1.380500	1.843766
1.381000	1.843129
1.381500	1.843129
1.382000	1.843447
1.382500	1.842492
1.383000	1.842492
1.383500	1.843129
1.384000	1.841855
1.384500	1.843129
1.385000	1.843447
1.385500	1.841537
1.386000	1.843447
1.386500	1.843129
1.387000	1.842810
1.387500	1.842810
1.388000	1.842492
1.388500	1.842810
1.389000	1.842810
1.389500	1.842173
1.390000	1.843129
1.390500	1.842810
1.391000	1.843129
1.391500	1.843766
1.392000	1.842810
1.392500	1.842492
1.393000	1.842173
1.393500	1.842492
1.394000	1.842492
1.394500	1.842810
1.395000	1.842173
1.395500	1.842173
1.396000	1.842492
1.396500	1.842492
1.397000	1.843447
1.397500	1.843129
1.398000	1.842492
1.398500	1.843766
1.399000	1.841855
1.399500	1.842810
1.400000	1.842492
1.400500	1.842492
1.401000	1.842810
1.401500	1.842810
1.402000	1.841537
1.402500	1.842810
1.403000	1.842173
1.403500	1.842492
1.404000	1.843129
1.404500	1.842173
1.405000	1.842492
1.405500	1.842492
1.406000	1.842492
1.406500	1.842492
1.407000	1.841855
1.407500	1.842810
1.408000	1.843447
1.408500	1.842810
1.409000	1.842173
1.409500	1.842173
1.410000	1.841855
1.410500	1.843766
1.411000	1.842492
1.411500	1.842810
1.412000	1.842492
1.412500	1.842492
1.413000	1.842810
1.413500	1.842173
1.414000	1.841537
1.414500	1.842810
1.415000	1.843129
1.415500	1.842810
1.416000	1.842492
1.416500	1.842492
1.417000	1.842173
1.417500	1.842492
1.418000	1.841855
1.418500	1.842492
1.419000	1.842173
1.419500	1.842173
1.420000	1.843129
1.420500	1.842810
1.421000	1.842173
1.421500	1.842492
1.422000	1.842492
1.422500	1.842173
1.423000	1.842492
1.423500	1.841855
1.424000	1.842810
1.424500	1.842492
1.425000	1.842492
1.425500	1.842492
1.426000	1.842173
1.426500	1.841855
1.427000	1.843129
1.427500	1.841537
1.428000	1.842492
1.428500	1.841855
1.429000	1.841855
1.429500	1.842810
1.430000	1.841855
1.430500	1.841537
1.431000	1.842810
1.431500	1.842492
1.432000	1.842810
1.432500	1.841855
1.433000	1.842173
1.433500	1.842810
1.434000	1.842810
1.434500	1.842173
1.435000	1.842810
1.435500	1.841855
1.436000	1.842492
1.436500	1.842810
1.437000	1.841855
1.437500	1.842492
1.438000	1.842173
1.438500	1.841537
1.439000	1.842810
1.439500	1.842173
1.440000	1.841855
1.440500	1.841855
1.441000	1.842492
1.441500	1.842492
1.442000	1.842492
1.442500	1.841537
1.443000	1.842173
1.443500	1.843129
1.444000	1.842492
1.444500	1.842810
1.445000	1.841855
1.445500	1.842492
1.446000	1.842492
1.446500	1.841855
1.447000	1.842492
1.447500	1.842492
1.448000	1.842173
1.448500	1.843129
1.449000	1.842492
1.449500	1.841218
1.450000	1.842173
1.450500	1.842810
1.451000	1.841855
1.451500	1.842492
1.452000	1.841537
1.452500	1.842810
1.453000	1.842492
1.453500	1.842173
1.454000	1.843129
1.454500	1.841855
1.455000	1.842173
1.455500	1.843766
1.456000	1.842173
1.456500	1.842492
1.457000	1.842492
1.457500	1.841537
1.458000	1.844084
1.458500	1.842492
1.459000	1.841855
1.459500	1.842492
1.460000	1.841537
1.460500	1.842492
1.461000	1.842492
1.461500	1.841855
1.462000	1.843129
1.462500	1.843129
1.463000	1.842173
1.463500	1.842810
1.464000	1.842492
1.464500	1.841855
1.465000	1.842810
1.465500	1.841855
1.466000	1.842492
1.466500	1.843129
1.467000	1.842173
1.467500	1.842173
1.468000	1.842810
1.468500	1.841855
1.469000	1.841855
1.469500	1.842492
1.470000	1.843129
1.470500	1.842492
1.471000	1.842173
1.471500	1.842173
1.472000	1.844084
1.472500	1.842492
1.473000	1.842173
1.473500	1.842173
1.474000	1.842492
1.474500	1.843129
1.475000	1.842810
1.475500	1.842173
1.476000	1.843766
1.476500	1.841855
1.477000	1.843447
1.477500	1.842492
1.478000	1.842492
1.478500	1.843447
1.479000	1.842810
1.479500	1.842492
1.480000	1.842810
1.480500	1.842492
1.481000	1.842492
1.481500	1.844084
1.482000	1.842492
1.482500	1.843447
1.483000	1.842492
1.483500	1.843129
1.484000	1.843447
1.484500	1.842810
1.485000	1.841855
1.485500	1.842492
1.486000	1.842492
1.486500	1.842810
1.487000	1.842810
1.487500	1.842492
1.488000	1.842492
1.488500	1.842810
1.489000	1.842492
1.489500	1.842492
1.490000	1.842492
1.490500	1.842810
1.491000	1.842810
1.491500	1.842492
1.492000	1.841855
1.492500	1.842810
1.493000	1.842492
1.493500	1.842492
1.494000	1.842492
1.494500	1.841855
1.495000	1.842173
1.495500	1.842810
1.496000	1.842810
1.496500	1.843129
1.497000	1.842492
1.497500	1.842492
1.498000	1.843447
1.498500	1.842173
1.499000	1.842810
1.499500	1.842492
1.500000	1.842492
1.500500	1.843129
1.501000	1.842492
1.501500	1.841855
1.502000	1.842492
1.502500	1.842173
1.503000	1.844084
1.503500	1.842492
1.504000	1.841855
1.504500	1.842810
1.505000	1.842492
1.505500	1.843129
1.506000	1.842810
1.506500	1.842810
1.507000	1.842492
1.507500	1.843129
1.508000	1.843129
1.508500	1.842492
1.509000	1.842810
1.509500	1.842173
1.510000	1.843766
1.510500	1.842810
1.511000	1.842173
1.511500	1.842492
1.512000	1.842492
1.512500	1.842492
1.513000	1.842810
1.513500	1.842492
1.514000	1.843129
1.514500	1.843129
1.515000	1.842492
1.515500	1.843129
1.516000	1.842492
1.516500	1.841218
1.517000	1.843766
1.517500	1.842173
1.518000	1.842173
1.518500	1.842492
1.519000	1.841855
1.519500	1.842810
1.520000	1.842173
1.520500	1.842173
1.521000	1.842810
1.521500	1.841537
1.522000	1.841855
1.522500	1.843447
1.523000	1.842492
1.523500	1.842492
1.524000	1.842810
1.524500	1.841855
1.525000	1.842492
1.525500	1.842173
1.526000	1.841855
1.526500	1.842810
1.527000	1.842492
1.527500	1.842173
1.528000	1.841855
1.528500	1.841537
1.529000	1.842810
1.529500	1.841855
1.530000	1.841537
1.530500	1.842173
1.531000	1.841855
1.531500	1.842173
1.532000	1.842810
1.532500	1.842173
1.533000	1.843129
1.533500	1.843447
1.534000	1.841855
1.534500	1.842492
1.535000	1.842173
1.535500	1.842810
1.536000	1.842810
1.536500	1.842492
1.537000	1.841855
1.537500	1.842810
1.538000	1.841855
1.538500	1.842492
1.539000	1.842173
1.539500	1.842173
1.540000	1.843129
1.540500	1.842173
1.541000	1.842492
1.541500	1.842492
1.542000	1.841855
1.542500	1.842173
1.543000	1.843129
1.543500	1.842492
1.544000	1.841855
1.544500	1.842492
1.545000	1.841855
1.545500	1.843447
1.546000	1.842173
1.546500	1.842810
1.547000	1.842810
1.547500	1.841537
1.548000	1.842810
1.548500	1.842492
1.549000	1.842492
1.549500	1.842810
1.550000	1.842492
1.550500	1.842173
1.551000	1.843129
1.551500	1.842173
1.552000	1.842492
1.552500	1.842810
1.553000	1.842173
1.553500	1.842492
1.554000	1.842492
1.554500	1.841537
1.555000	1.843129
1.555500	1.842492
1.556000	1.842173
1.556500	1.842492
1.557000	1.842492
1.557500	1.842492
1.558000	1.842810
1.558500	1.842173
1.559000	1.843447
1.559500	1.842810
1.560000	1.842492
1.560500	1.843766
1.561000	1.842173
1.561500	1.842810
1.562000	1.843129
1.562500	1.842492
1.563000	1.842492
1.563500	1.842810
1.564000	1.842492
1.564500	1.842810
1.565000	1.842810
1.565500	1.841537
1.566000	1.842810
1.566500	1.842810
1.567000	1.842492
1.567500	1.843766
1.568000	1.841855
1.568500	1.843129
1.569000	1.843129
1.569500	1.843129
1.570000	1.842810
1.570500	1.842492
1.571000	1.842810
1.571500	1.843766
1.572000	1.842492
1.572500	1.841537
1.573000	1.842810
1.573500	1.842173
1.574000	1.842810
1.574500	1.842492
1.575000	1.842173
1.575500	1.842810
1.576000	1.842492
1.576500	1.843129
1.577000	1.842173
1.577500	1.841537
1.578000	1.842810
1.578500	1.843129
1.579000	1.842810
1.579500	1.843129
1.580000	1.842173
1.580500	1.843129
1.581000	1.843129
1.581500	1.842173
1.582000	1.842492
1.582500	1.842810
1.583000	1.842492
1.583500	1.844403
1.584000	1.842810
1.584500	1.841855
1.585000	1.842810
1.585500	1.841855
1.586000	1.842492
1.586500	1.843766
1.587000	1.842173
1.587500	1.842173
1.588000	1.843129
1.588500	1.842173
1.589000	1.843129
1.589500	1.842492
1.590000	1.842810
1.590500	1.844084
1.591000	1.842173
1.591500	1.842173
1.592000	1.842492
1.592500	1.841537
1.593000	1.843447
1.593500	1.842492
1.594000	1.841537
1.594500	1.842492
1.595000	1.842810
1.595500	1.842492
1.596000	1.843129
1.596500	1.841537
1.597000	1.842810
1.597500	1.842810
1.598000	1.842492
1.598500	1.842492
1.599000	1.842173
1.599500	1.841855
1.600000	1.843129
1.600500	1.842173
1.601000	1.842173
1.601500	1.842492
1.602000	1.841855
1.602500	1.842173
1.603000	1.842173
1.603500	1.841537
1.604000	1.842492
1.604500	1.843129
1.605000	1.842492
1.605500	1.842492
1.606000	1.841537
1.606500	1.841855
1.607000	1.841855
1.607500	1.841855
1.608000	1.842492
1.608500	1.842173
1.609000	1.841537
1.609500	1.842810
1.610000	1.841855
1.610500	1.840581
1.611000	1.842492
1.611500	1.841218
1.612000	1.842173
1.612500	1.842492
1.613000	1.840581
1.613500	1.841537
1.614000	1.842492
1.614500	1.842492
1.615000	1.842810
1.615500	1.841537
1.616000	1.842492
1.616500	1.843129
1.617000	1.841855
1.617500	1.842492
1.618000	1.841855
1.618500	1.841855
1.619000	1.842810
1.619500	1.841537
1.620000	1.841537
1.620500	1.841855
1.621000	1.842173
1.621500	1.842492
1.622000	1.842173
1.622500	1.841855
1.623000	1.842492
1.623500	1.842492
1.624000	1.842173
1.624500	1.842492
1.625000	1.841218
1.625500	1.842492
1.626000	1.842810
1.626500	1.842810
1.627000	1.841855
1.627500	1.842173
1.628000	1.842492
1.628500	1.843129
1.629000	1.843129
1.629500	1.841218
1.630000	1.841855
1.630500	1.842492
1.631000	1.841855
1.631500	1.842173
1.632000	1.841537
1.632500	1.841855
1.633000	1.843129
1.633500	1.841855
1.634000	1.841855
1.634500	1.841855
1.635000	1.841855
1.635500	1.842810
1.636000	1.842492
1.636500	1.842492
1.637000	1.842492
1.637500	1.841855
1.638000	1.842810
1.638500	1.842173
1.639000	1.841218
1.639500	1.842810
1.640000	1.841855
1.640500	1.843129
1.641000	1.842492
1.641500	1.841855
1.642000	1.842492
1.642500	1.842810
1.643000	1.842173
1.643500	1.843766
1.644000	1.842173
1.644500	1.842173
1.645000	1.843129
1.645500	1.842173
1.646000	1.842492
1.646500	1.842492
1.647000	1.842810
1.647500	1.843447
1.648000	1.842492
1.648500	1.841537
1.649000	1.842173
1.649500	1.841537
1.650000	1.842492
1.650500	1.842173
1.651000	1.841855
1.651500	1.842492
1.652000	1.842810
1.652500	1.841537
1.653000	1.842173
1.653500	1.841855
1.654000	1.842173
1.654500	1.843129
1.655000	1.842173
1.655500	1.842173
1.656000	1.843129
1.656500	1.841855
1.657000	1.842810
1.657500	1.841855
1.658000	1.841855
1.658500	1.842492
1.659000	1.842810
1.659500	1.842173
1.660000	1.842810
1.660500	1.842492
1.661000	1.841855
1.661500	1.843447
1.662000	1.842173
1.662500	1.842810
1.663000	1.842492
1.663500	1.841855
1.664000	1.843447
1.664500	1.842492
1.665000	1.842173
1.665500	1.842492
1.666000	1.841855
1.666500	1.843129
1.667000	1.841855
1.667500	1.842173
1.668000	1.842492
1.668500	1.842492
1.669000	1.842492
1.669500	1.842810
1.670000	1.842173
1.670500	1.842492
1.671000	1.843766
1.671500	1.843447
1.672000	1.842810
1.672500	1.841855
1.673000	1.842810
1.673500	1.843129
1.674000	1.842492
1.674500	1.842492
1.675000	1.843129
1.675500	1.842810
1.676000	1.842492
1.676500	1.841855
1.677000	1.841855
1.677500	1.842810
1.678000	1.842173
1.678500	1.842492
1.679000	1.842810
1.679500	1.841855
1.680000	1.842810
1.680500	1.842810
1.681000	1.842173
1.681500	1.842492
1.682000	1.843129
1.682500	1.842492
1.683000	1.843766
1.683500	1.842492
1.684000	1.842173
1.684500	1.843129
1.685000	1.842173
1.685500	1.842492
1.686000	1.842810
1.686500	1.840900
1.687000	1.842810
1.687500	1.842173
1.688000	1.842492
1.688500	1.842810
1.689000	1.842173
1.689500	1.842492
1.690000	1.842173
1.690500	1.842492
1.691000	1.842810
1.691500	1.842173
1.692000	1.842173
1.692500	1.842810
1.693000	1.841855
1.693500	1.841855
1.694000	1.842492
1.694500	1.842492
1.695000	1.841855
1.695500	1.842492
1.696000	1.840900
1.696500	1.841855
1.697000	1.842492
1.697500	1.842173
1.698000	1.842492
1.698500	1.842173
1.699000	1.842492
1.699500	1.842173
1.700000	1.842173
1.700500	1.842173
1.701000	1.842173
1.701500	1.841855
1.702000	1.842173
1.702500	1.842810
1.703000	1.842492
1.703500	1.842173
1.704000	1.842810
1.704500	1.843129
1.705000	1.841855
1.705500	1.841218
1.706000	1.842492
1.706500	1.842492
1.707000	1.841855
1.707500	1.843447
1.708000	1.842173
1.708500	1.842173
1.709000	1.843129
1.709500	1.841855
1.710000	1.841855
1.710500	1.842492
1.711000	1.841855
1.711500	1.843447
1.712000	1.842492
1.712500	1.841218
1.713000	1.842810
1.713500	1.842492
1.714000	1.842810
1.714500	1.842173
1.715000	1.842492
1.715500	1.842492
1.716000	1.843129
1.716500	1.842492
1.717000	1.843129
1.717500	1.843129
1.718000	1.842492
1.718500	1.842810
1.719000	1.842492
1.719500	1.842810
1.720000	1.842173
1.720500	1.842173
1.721000	1.843129
1.721500	1.843129
1.722000	1.842173
1.722500	1.843129
1.723000	1.842492
1.723500	1.842492
1.724000	1.843129
1.724500	1.841855
1.725000	1.842492
1.725500	1.843447
1.726000	1.842810
1.726500	1.843129
1.727000	1.843129
1.727500	1.842173
1.728000	1.843447
1.728500	1.842492
1.729000	1.842810
1.729500	1.842492
1.730000	1.842492
1.730500	1.843129
1.731000	1.842492
1.731500	1.842173
1.732000	1.842492
1.732500	1.843129
1.733000	1.842810
1.733500	1.843447
1.734000	1.841537
1.734500	1.842810
1.735000	1.843129
1.735500	1.842810
1.736000	1.843447
1.736500	1.842173
1.737000	1.843129
1.737500	1.842810
1.738000	1.842173
1.738500	1.843447
1.739000	1.843447
1.739500	1.842173
1.740000	1.843766
1.740500	1.842810
1.741000	1.842492
1.741500	1.842810
1.742000	1.841855
1.742500	1.843129
1.743000	1.842173
1.743500	1.842492
1.744000	1.842810
1.744500	1.842810
1.745000	1.842492
1.745500	1.842810
1.746000	1.842492
1.746500	1.842810
1.747000	1.843447
1.747500	1.842492
1.748000	1.842492
1.748500	1.842492
1.749000	1.842810
1.749500	1.843447
1.750000	1.843129
1.750500	1.842492
1.751000	1.843447
1.751500	1.842173
1.752000	1.842492
1.752500	1.843766
1.753000	1.842810
1.753500	1.842810
1.754000	1.843129
1.754500	1.843447
1.755000	1.843129
1.755500	1.842810
1.756000	1.842810
1.756500	1.843766
1.757000	1.842173
1.757500	1.843129
1.758000	1.842810
1.758500	1.843447
1.759000	1.843766
1.759500	1.842810
1.760000	1.843447
1.760500	1.843129
1.761000	1.843129
1.761500	1.843766
1.762000	1.843129
1.762500	1.842810
1.763000	1.843766
1.763500	1.843766
1.764000	1.842810
1.764500	1.843766
1.765000	1.842492
1.765500	1.843447
1.766000	1.844084
1.766500	1.843766
1.767000	1.843766
1.767500	1.842810
1.768000	1.843129
1.768500	1.843766
1.769000	1.842810
1.769500	1.842173
1.770000	1.843129
1.770500	1.843447
1.771000	1.843766
1.771500	1.842492
1.772000	1.842492
1.772500	1.842810
1.773000	1.843766
1.773500	1.843447
1.774000	1.843447
1.774500	1.842810
1.775000	1.843129
1.775500	1.844403
1.776000	1.843766
1.776500	1.843129
1.777000	1.843766
1.777500	1.843129
1.778000	1.843129
1.778500	1.843447
1.779000	1.842173
1.779500	1.843766
1.780000	1.844084
1.780500	1.843766
1.781000	1.844084
1.781500	1.843129
1.782000	1.844084
1.782500	1.844403
1.783000	1.843129
1.783500	1.845040
1.784000	1.843129
1.784500	1.843766
1.785000	1.844403
1.785500	1.842810
1.786000	1.843447
1.786500	1.843129
1.787000	1.842810
1.787500	1.844721
1.788000	1.843766
1.788500	1.843129
1.789000	1.843447
1.789500	1.843129
1.790000	1.844403
1.790500	1.843766
1.791000	1.843447
1.791500	1.843766
1.792000	1.844403
1.792500	1.843129
1.793000	1.844084
1.793500	1.842810
1.794000	1.843766
1.794500	1.843766
1.795000	1.843447
1.795500	1.842810
1.796000	1.844403
1.796500	1.843129
1.797000	1.844084
1.797500	1.843766
1.798000	1.843766
1.798500	1.843766
1.799000	1.843766
1.799500	1.843766
1.800000	1.844084
1.800500	1.843129
1.801000	1.843766
1.801500	1.843766
1.802000	1.843447
1.802500	1.844084
1.803000	1.843766
1.803500	1.844084
1.804000	1.844721
1.804500	1.843766
1.805000	1.843766
1.805500	1.843766
1.806000	1.842810
1.806500	1.843447
1.807000	1.843766
1.807500	1.843129
1.808000	1.844403
1.808500	1.844084
1.809000	1.844084
1.809500	1.844084
1.810000	1.843447
1.810500	1.843447
1.811000	1.844721
1.811500	1.843766
1.812000	1.845040
1.812500	1.843766
1.813000	1.843766
1.813500	1.844721
1.814000	1.843447
1.814500	1.843766
1.815000	1.844084
1.815500	1.843129
1.816000	1.844403
1.816500	1.844403
1.817000	1.843447
1.817500	1.844403
1.818000	1.844721
1.818500	1.843766
1.819000	1.844721
1.819500	1.844084
1.820000	1.843129
1.820500	1.844084
1.821000	1.844084
1.821500	1.844403
1.822000	1.844084
1.822500	1.843766
1.823000	1.845040
1.823500	1.844721
1.824000	1.843766
1.824500	1.844403
1.825000	1.843447
1.825500	1.844403
1.826000	1.845040
1.826500	1.843447
1.827000	1.844403
1.827500	1.844084
1.828000	1.844084
1.828500	1.844721
1.829000	1.844084
1.829500	1.844403
1.830000	1.845358
1.830500	1.844084
1.831000	1.844084
1.831500	1.844721
1.832000	1.844084
1.832500	1.845358
1.833000	1.844084
1.833500	1.843766
1.834000	1.844084
1.834500	1.844084
1.835000	1.845676
1.835500	1.844403
1.836000	1.844403
1.836500	1.844084
1.837000	1.843766
1.837500	1.844084
1.838000	1.844403
1.838500	1.844084
1.839000	1.844084
1.839500	1.844721
1.840000	1.844721
1.840500	1.844403
1.841000	1.843766
1.841500	1.845040
1.842000	1.845358
1.842500	1.843447
1.843000	1.844403
1.843500	1.843766
1.844000	1.844403
1.844500	1.845040
1.845000	1.844084
1.845500	1.844403
1.846000	1.845358
1.846500	1.844403
1.847000	1.844403
1.847500	1.845040
1.848000	1.843766
1.848500	1.844403
1.849000	1.844403
1.849500	1.844403
1.850000	1.843766
1.850500	1.843766
1.851000	1.843766
1.851500	1.844721
1.852000	1.844403
1.852500	1.844403
1.853000	1.844721
1.853500	1.844721
1.854000	1.845040
1.854500	1.844084
1.855000	1.844084
1.855500	1.843766
1.856000	1.844403
1.856500	1.844721
1.857000	1.844721
1.857500	1.843129
1.858000	1.843766
1.858500	1.844403
1.859000	1.843766
1.859500	1.844403
1.860000	1.843766
1.860500	1.843129
1.861000	1.845040
1.861500	1.844084
1.862000	1.843766
1.862500	1.844084
1.863000	1.843766
1.863500	1.844403
1.864000	1.843766
1.864500	1.843766
1.865000	1.843447
1.865500	1.843129
1.866000	1.844403
1.866500	1.843766
1.867000	1.843447
1.867500	1.843766
1.868000	1.844403
1.868500	1.842810
1.869000	1.844084
1.869500	1.843129
1.870000	1.844084
1.870500	1.844403
1.871000	1.843766
1.871500	1.844084
1.872000	1.843447
1.872500	1.843766
1.873000	1.844403
1.873500	1.843766
1.874000	1.843129
1.874500	1.843766
1.875000	1.844084
1.875500	1.843766
1.876000	1.844084
1.876500	1.842810
1.877000	1.843447
1.877500	1.844084
1.878000	1.844084
1.878500	1.843766
1.879000	1.842810
1.879500	1.843129
1.880000	1.844084
1.880500	1.843766
1.881000	1.842492
1.881500	1.844084
1.882000	1.843129
1.882500	1.844084
1.883000	1.843129
1.883500	1.842492
1.884000	1.843447
1.884500	1.843766
1.885000	1.844084
1.885500	1.844403
1.886000	1.843129
1.886500	1.844084
1.887000	1.844084
1.887500	1.843766
1.888000	1.844084
1.888500	1.843766
1.889000	1.844084
1.889500	1.844403
1.890000	1.844084
1.890500	1.844084
1.891000	1.844084
1.891500	1.842492
1.892000	1.844403
1.892500	1.843766
1.893000	1.842810
1.893500	1.843766
1.894000	1.843447
1.894500	1.843447
1.895000	1.843447
1.895500	1.843447
1.896000	1.844084
1.896500	1.844403
1.897000	1.844084
1.897500	1.843766
1.898000	1.842173
1.898500	1.843447
1.899000	1.844084
1.899500	1.842492
1.900000	1.843129
1.900500	1.843129
1.901000	1.842810
1.901500	1.843766
1.902000	1.844084
1.902500	1.842492
1.903000	1.843447
1.903500	1.843129
1.904000	1.843766
1.904500	1.843129
1.905000	1.843447
1.905500	1.843129
1.906000	1.844403
1.906500	1.842810
1.907000	1.843129
1.907500	1.843129
1.908000	1.843766
1.908500	1.843766
1.909000	1.843129
1.909500	1.842492
1.910000	1.842810
1.910500	1.842492
1.911000	1.843129
1.911500	1.843129
1.912000	1.841537
1.912500	1.843129
1.913000	1.842810
1.913500	1.842810
1.914000	1.844084
1.914500	1.843129
1.915000	1.843129
1.915500	1.843766
1.916000	1.843766
1.916500	1.843447
1.917000	1.843447
1.917500	1.842492
1.918000	1.844084
1.918500	1.843129
1.919000	1.842810
1.919500	1.842810
1.920000	1.842810
1.920500	1.843766
1.921000	1.842810
1.921500	1.842810
1.922000	1.843766
1.922500	1.843766
1.923000	1.843129
1.923500	1.842810
1.924000	1.842492
1.924500	1.843766
1.925000	1.843766
1.925500	1.842810
1.926000	1.843129
1.926500	1.843766
1.927000	1.843129
1.927500	1.843766
1.928000	1.843129
1.928500	1.843766
1.929000	1.843766
1.929500	1.843766
1.930000	1.843766
1.930500	1.843766
1.931000	1.842810
1.931500	1.843129
1.932000	1.843766
1.932500	1.843447
1.933000	1.843129
1.933500	1.842492
1.934000	1.843766
1.934500	1.843766
1.935000	1.844084
1.935500	1.843766
1.936000	1.843129
1.936500	1.842810
1.937000	1.843766
1.937500	1.843129
1.938000	1.842810
1.938500	1.843129
1.939000	1.842810
1.939500	1.843129
1.940000	1.843766
1.940500	1.842492
1.941000	1.843129
1.941500	1.843766
1.942000	1.842492
1.942500	1.843129
1.943000	1.842810
1.943500	1.844084
1.944000	1.843766
1.944500	1.843766
1.945000	1.842492
1.945500	1.843129
1.946000	1.841855
1.946500	1.844084
1.947000	1.842492
1.947500	1.842492
1.948000	1.843766
1.948500	1.842810
1.949000	1.843129
1.949500	1.843766
1.950000	1.843129
1.950500	1.842810
1.951000	1.843447
1.951500	1.843129
1.952000	1.843129
1.952500	1.842492
1.953000	1.842173
1.953500	1.843447
1.954000	1.843766
1.954500	1.842492
1.955000	1.843129
1.955500	1.842810
1.956000	1.843447
1.956500	1.842492
1.957000	1.842173
1.957500	1.842810
1.958000	1.842810
1.958500	1.842810
1.959000	1.843766
1.959500	1.842173
1.960000	1.843447
1.960500	1.843766
1.961000	1.842492
1.961500	1.843129
1.962000	1.842173
1.962500	1.841855
1.963000	1.844084
1.963500	1.842492
1.964000	1.842173
1.964500	1.842173
1.965000	1.842173
1.965500	1.842492
1.966000	1.843129
1.966500	1.841537
1.967000	1.843766
1.967500	1.842492
1.968000	1.843766
1.968500	1.843447
1.969000	1.842492
1.969500	1.843766
1.970000	1.843129
1.970500	1.842492
1.971000	1.842810
1.971500	1.842492
1.972000	1.842492
1.972500	1.843766
1.973000	1.842810
1.973500	1.842810
1.974000	1.843129
1.974500	1.842492
1.975000	1.843129
1.975500	1.842492
1.976000	1.841855
1.976500	1.842810
1.977000	1.843129
1.977500	1.842492
1.978000	1.843447
1.978500	1.842173
1.979000	1.842810
1.979500	1.843447
1.980000	1.842492
1.980500	1.842810
1.981000	1.842492
1.981500	1.842810
1.982000	1.843129
1.982500	1.843766
1.983000	1.843129
1.983500	1.843766
1.984000	1.842173
1.984500	1.843129
1.985000	1.843129
1.985500	1.841855
1.986000	1.842810
1.986500	1.843766
1.987000	1.842810
1.987500	1.843129
1.988000	1.842173
1.988500	1.842492
1.989000	1.843766
1.989500	1.842492
1.990000	1.842173
1.990500	1.843447
1.991000	1.842492
1.991500	1.843766
1.992000	1.843447
1.992500	1.842492
1.993000	1.842810
1.993500	1.842492
1.994000	1.842492
1.994500	1.842492
1.995000	1.842173
1.995500	1.842810
1.996000	1.844084
1.996500	1.842810
1.997000	1.842810
1.997500	1.842810
1.998000	1.842492
1.998500	1.843129
1.999000	1.843129
1.999500	1.842173
2.000000	1.843129
2.000500	1.843766
2.001000	1.843129
2.001500	1.843129
2.002000	1.842492
2.002500	1.842492
2.003000	1.842810
2.003500	1.841855
2.004000	1.843129
2.004500	1.842492
2.005000	1.843129
2.005500	1.843766
2.006000	1.842810
2.006500	1.843447
2.007000	1.842810
2.007500	1.842173
2.008000	1.843766
2.008500	1.842492
2.009000	1.841537
2.009500	1.843129
2.010000	1.842810
2.010500	1.843447
2.011000	1.843129
2.011500	1.842492
2.012000	1.843129
2.012500	1.843129
2.013000	1.842492
2.013500	1.843129
2.014000	1.843129
2.014500	1.843129
2.015000	1.843129
2.015500	1.842173
2.016000	1.843129
2.016500	1.842492
2.017000	1.843447
2.017500	1.843766
2.018000	1.843129
2.018500	1.842492
2.019000	1.842810
2.019500	1.842492
2.020000	1.843129
2.020500	1.843447
2.021000	1.842492
2.021500	1.843766
2.022000	1.842810
2.022500	1.842810
2.023000	1.842810
2.023500	1.842810
2.024000	1.842492
2.024500	1.843129
2.025000	1.842173
2.025500	1.843129
2.026000	1.842173
2.026500	1.842492
2.027000	1.843447
2.027500	1.842492
2.028000	1.841855
2.028500	1.842810
2.029000	1.842810
2.029500	1.842173
2.030000	1.842810
2.030500	1.842173
2.031000	1.842492
2.031500	1.843129
2.032000	1.842810
2.032500	1.842492
2.033000	1.841855
2.033500	1.841855
2.034000	1.842810
2.034500	1.841855
2.035000	1.842492
2.035500	1.842173
2.036000	1.842173
2.036500	1.842810
2.037000	1.842492
2.037500	1.841537
2.038000	1.842492
2.038500	1.843129
2.039000	1.842173
2.039500	1.842810
2.040000	1.841855
2.040500	1.842173
2.041000	1.842492
2.041500	1.842173
2.042000	1.841855
2.042500	1.841855
2.043000	1.842810
2.043500	1.842492
2.044000	1.841855
2.044500	1.841218
2.045000	1.842173
2.045500	1.842492
2.046000	1.842492
2.046500	1.841855
2.047000	1.841855
2.047500	1.842492
2.048000	1.842492
2.048500	1.842173
2.049000	1.842492
2.049500	1.841855
2.050000	1.842810
2.050500	1.843447
2.051000	1.841537
2.051500	1.842173
2.052000	1.842810
2.052500	1.841218
2.053000	1.842810
2.053500	1.842492
2.054000	1.841537
2.054500	1.842810
2.055000	1.843129
2.055500	1.843129
2.056000	1.843766
2.056500	1.841537
2.057000	1.842173
2.057500	1.842810
2.058000	1.842492
2.058500	1.843129
2.059000	1.842492
2.059500	1.843129
2.060000	1.843766
2.060500	1.842492
2.061000	1.843129
2.061500	1.842810
2.062000	1.843129
2.062500	1.842810
2.063000	1.843129
2.063500	1.842810
2.064000	1.843447
2.064500	1.843129
2.065000	1.842492
2.065500	1.842810
2.066000	1.843447
2.066500	1.843129
2.067000	1.843447
2.067500	1.843129
2.068000	1.842810
2.068500	1.843129
2.069000	1.842810
2.069500	1.843129
2.070000	1.843447
2.070500	1.843129
2.071000	1.842810
2.071500	1.843129
2.072000	1.843766
2.072500	1.843447
2.073000	1.841855
2.073500	1.843447
2.074000	1.844084
2.074500	1.844084
2.075000	1.843766
2.075500	1.843129
2.076000	1.843447
2.076500	1.843766
2.077000	1.843129
2.077500	1.842492
2.078000	1.843447
2.078500	1.842492
2.079000	1.843447
2.079500	1.843447
2.080000	1.842810
2.080500	1.843766
2.081000	1.842810
2.081500	1.843766
2.082000	1.842810
2.082500	1.843129
2.083000	1.843447
2.083500	1.844403
2.084000	1.843129
2.084500	1.843129
2.085000	1.843129
2.085500	1.843447
2.086000	1.843766
2.086500	1.843447
2.087000	1.843129
2.087500	1.843129
2.088000	1.843129
2.088500	1.843129
2.089000	1.842810
2.089500	1.842810
2.090000	1.843447
2.090500	1.843129
2.091000	1.843129
2.091500	1.843766
2.092000	1.842810
2.092500	1.842492
2.093000	1.843766
2.093500	1.842810
2.094000	1.843129
2.094500	1.843129
2.095000	1.842810
2.095500	1.843766
2.096000	1.843447
2.096500	1.842173
2.097000	1.843766
2.097500	1.842810
2.098000	1.842492
2.098500	1.843766
2.099000	1.842810
2.099500	1.842810
2.100000	1.843447
2.100500	1.842173
2.101000	1.844084
2.101500	1.842810
2.102000	1.842810
2.102500	1.844084
2.103000	1.842492
2.103500	1.842810
2.104000	1.843129
2.104500	1.842810
2.105000	1.843129
2.105500	1.843129
2.106000	1.842173
2.106500	1.842810
2.107000	1.843447
2.107500	1.843129
2.108000	1.843129
2.108500	1.842492
2.109000	1.842492
2.109500	1.843766
2.110000	1.842492
2.110500	1.842810
2.111000	1.842173
2.111500	1.841855
2.112000	1.843129
2.112500	1.842492
2.113000	1.841855
2.113500	1.842810
2.114000	1.842810
2.114500	1.842173
2.115000	1.842492
2.115500	1.841855
2.116000	1.842492
2.116500	1.842810
2.117000	1.842173
2.117500	1.842810
2.118000	1.842173
2.118500	1.841855
2.119000	1.843129
2.119500	1.841537
2.120000	1.841855
2.120500	1.842810
2.121000	1.841218
2.121500	1.842810
2.122000	1.842492
2.122500	1.841537
2.123000	1.842810
2.123500	1.843129
2.124000	1.842810
2.124500	1.842173
2.125000	1.841218
2.125500	1.842492
2.126000	1.842492
2.126500	1.841855
2.127000	1.842173
2.127500	1.841855
2.128000	1.842173
2.128500	1.842492
2.129000	1.842810
2.129500	1.841537
2.130000	1.842810
2.130500	1.842173
2.131000	1.843129
2.131500	1.843129
2.132000	1.842492
2.132500	1.842492
2.133000	1.841855
2.133500	1.842492
2.134000	1.842492
2.134500	1.842173
2.135000	1.841537
2.135500	1.843129
2.136000	1.841855
2.136500	1.842492
2.137000	1.842492
2.137500	1.841537
2.138000	1.842492
2.138500	1.842810
2.139000	1.840581
2.139500	1.843129
2.140000	1.842492
2.140500	1.842810
2.141000	1.842492
2.141500	1.841537
2.142000	1.842810
2.142500	1.843447
2.143000	1.842810
2.143500	1.842492
2.144000	1.842492
2.144500	1.843129
2.145000	1.842492
2.145500	1.842173
2.146000	1.842810
2.146500	1.842810
2.147000	1.842492
2.147500	1.843766
2.148000	1.842810
2.148500	1.842810
2.149000	1.843129
2.149500	1.842173
2.150000	1.842492
2.150500	1.842810
2.151000	1.842492
2.151500	1.842810
2.152000	1.843447
2.152500	1.842173
2.153000	1.842810
2.153500	1.842492
2.154000	1.842492
2.154500	1.843447
2.155000	1.842492
2.155500	1.842492
2.156000	1.843447
2.156500	1.842173
2.157000	1.842810
2.157500	1.842810
2.158000	1.841537
2.158500	1.842173
2.159000	1.842492
2.159500	1.841537
2.160000	1.842492
2.160500	1.841855
2.161000	1.842492
2.161500	1.843766
2.162000	1.841537
2.162500	1.842492
2.163000	1.842810
2.163500	1.841855
2.164000	1.842810
2.164500	1.842173
2.165000	1.841537
2.165500	1.842492
2.166000	1.842173
2.166500	1.843129
2.167000	1.842810
2.167500	1.841855
2.168000	1.842492
2.168500	1.841855
2.169000	1.842173
2.169500	1.842173
2.170000	1.842492
2.170500	1.841218
2.171000	1.842492
2.171500	1.841855
2.172000	1.841537
2.172500	1.841855
2.173000	1.842492
2.173500	1.842492
2.174000	1.843129
2.174500	1.842173
2.175000	1.843129
2.175500	1.842173
2.176000	1.842810
2.176500	1.843129
2.177000	1.841855
2.177500	1.842810
2.178000	1.843129
2.178500	1.841855
2.179000	1.842173
2.179500	1.842173
2.180000	1.842492
2.180500	1.843766
2.181000	1.842810
2.181500	1.841855
2.182000	1.843129
2.182500	1.842492
2.183000	1.843129
2.183500	1.843766
2.184000	1.841855
2.184500	1.842810
2.185000	1.842810
2.185500	1.842492
2.186000	1.842810
2.186500	1.841855
2.187000	1.842810
2.187500	1.842810
2.188000	1.842492
2.188500	1.842173
2.189000	1.842173
2.189500	1.842492
2.190000	1.843129
2.190500	1.842810
2.191000	1.842173
2.191500	1.842173
2.192000	1.842173
2.192500	1.842492
2.193000	1.842492
2.193500	1.842173
2.194000	1.842492
2.194500	1.842173
2.195000	1.842173
2.195500	1.842492
2.196000	1.842173
2.196500	1.841537
2.197000	1.842492
2.197500	1.842492
2.198000	1.841855
2.198500	1.842810
2.199000	1.841537
2.199500	1.842492
2.200000	1.841855
2.200500	1.841855
2.201000	1.842492
2.201500	1.841855
2.202000	1.842492
2.202500	1.843129
2.203000	1.842492
2.203500	1.842173
2.204000	1.842810
2.204500	1.842492
2.205000	1.843129
2.205500	1.842492
2.206000	1.842173
2.206500	1.843447
2.207000	1.842492
2.207500	1.842173
2.208000	1.842492
2.208500	1.841537
2.209000	1.843129
2.209500	1.841855
2.210000	1.841855
2.210500	1.842173
2.211000	1.842492
2.211500	1.841855
2.212000	1.842810
2.212500	1.841855
2.213000	1.842810
2.213500	1.842492
2.214000	1.842492
2.214500	1.841855
2.215000	1.842492
2.215500	1.841855
2.216000	1.842810
2.216500	1.842173
2.217000	1.841537
2.217500	1.842492
2.218000	1.841855
2.218500	1.842492
2.219000	1.841855
2.219500	1.841855
2.220000	1.843129
2.220500	1.842173
2.221000	1.842810
2.221500	1.843129
2.222000	1.841537
2.222500	1.842492
2.223000	1.843447
2.223500	1.842810
2.224000	1.842492
2.224500	1.842810
2.225000	1.842492
2.225500	1.843129
2.226000	1.842810
2.226500	1.842492
2.227000	1.843129
2.227500	1.842492
2.228000	1.842810
2.228500	1.843447
2.229000	1.841537
2.229500	1.843129
2.230000	1.842492
2.230500	1.843129
2.231000	1.842810
2.231500	1.842173
2.232000	1.843129
2.232500	1.843447
2.233000	1.842810
2.233500	1.842173
2.234000	1.842173
2.234500	1.842492
2.235000	1.843766
2.235500	1.842810
2.236000	1.841855
2.236500	1.843129
2.237000	1.842810
2.237500	1.842492
2.238000	1.843129
2.238500	1.842810
2.239000	1.842810
2.239500	1.843766
2.240000	1.841855
2.240500	1.842492
2.241000	1.842810
2.241500	1.842810
2.242000	1.844084
2.242500	1.843129
2.243000	1.842810
2.243500	1.843129
2.244000	1.842492
2.244500	1.842810
2.245000	1.842810
2.245500	1.843129
2.246000	1.843447
2.246500	1.842810
2.247000	1.843766
2.247500	1.843129
2.248000	1.842492
2.248500	1.843129
2.249000	1.844084
2.249500	1.843129
2.250000	1.843447
2.250500	1.842810
2.251000	1.843129
2.251500	1.844403
2.252000	1.842173
2.252500	1.842810
2.253000	1.843129
2.253500	1.842492
2.254000	1.843129
2.254500	1.842810
2.255000	1.842173
2.255500	1.843129
2.256000	1.842492
2.256500	1.842810
2.257000	1.843129
2.257500	1.842492
2.258000	1.842492
2.258500	1.843129
2.259000	1.843129
2.259500	1.843766
2.260000	1.842492
2.260500	1.843447
2.261000	1.843766
2.261500	1.842810
2.262000	1.842810
2.262500	1.842492
2.263000	1.842810
2.263500	1.843129
2.264000	1.842810
2.264500	1.842810
2.265000	1.843129
2.265500	1.843129
2.266000	1.842492
2.266500	1.842810
2.267000	1.841855
2.267500	1.843129
2.268000	1.843766
2.268500	1.842492
2.269000	1.842492
2.269500	1.842810
2.270000	1.842492
2.270500	1.843766
2.271000	1.842173
2.271500	1.842492
2.272000	1.843129
2.272500	1.842810
2.273000	1.843766
2.273500	1.842810
2.274000	1.842173
2.274500	1.842810
2.275000	1.842492
2.275500	1.843129
2.276000	1.843129
2.276500	1.842173
2.277000	1.842810
2.277500	1.842810
2.278000	1.842173
2.278500	1.843129
2.279000	1.842810
2.279500	1.842492
2.280000	1.843766
2.280500	1.841855
2.281000	1.842173
2.281500	1.842173
2.282000	1.842173
2.282500	1.843447
2.283000	1.842492
2.283500	1.842173
2.284000	1.843129
2.284500	1.842173
2.285000	1.842492
2.285500	1.842810
2.286000	1.841537
2.286500	1.842173
2.287000	1.842810
2.287500	1.842492
2.288000	1.842492
2.288500	1.842810
2.289000	1.842492
2.289500	1.843766
2.290000	1.842492
2.290500	1.842173
2.291000	1.842810
2.291500	1.842492
2.292000	1.842810
2.292500	1.843447
2.293000	1.841537
2.293500	1.842492
2.294000	1.842492
2.294500	1.843129
2.295000	1.842810
2.295500	1.842492
2.296000	1.842810
2.296500	1.843129
2.297000	1.841855
2.297500	1.842173
2.298000	1.842492
2.298500	1.841855
2.299000	1.843129
2.299500	1.842492
2.300000	1.842810
2.300500	1.842810
2.301000	1.842173
2.301500	1.843129
2.302000	1.842810
2.302500	1.841218
2.303000	1.843129
2.303500	1.842492
2.304000	1.842810
2.304500	1.843129
2.305000	1.842492
2.305500	1.843129
2.306000	1.843129
2.306500	1.842492
2.307000	1.843447
2.307500	1.842492
2.308000	1.842810
2.308500	1.843129
2.309000	1.842810
2.309500	1.841855
2.310000	1.843129
2.310500	1.842492
2.311000	1.842810
2.311500	1.842810
2.312000	1.842173
2.312500	1.842492
2.313000	1.842810
2.313500	1.842173
2.314000	1.842492
2.314500	1.842173
2.315000	1.842492
2.315500	1.843766
2.316000	1.842810
2.316500	1.842492
2.317000	1.842810
2.317500	1.842492
2.318000	1.843129
2.318500	1.842810
2.319000	1.841537
2.319500	1.843447
2.320000	1.842173
2.320500	1.842492
2.321000	1.842810
2.321500	1.841537
2.322000	1.843129
2.322500	1.843129
2.323000	1.842492
2.323500	1.843129
2.324000	1.842173
2.324500	1.843129
2.325000	1.843447
2.325500	1.842810
2.326000	1.842492
2.326500	1.841855
2.327000	1.841855
2.327500	1.843129
2.328000	1.842810
2.328500	1.841537
2.329000	1.842173
2.329500	1.842492
2.330000	1.842810
2.330500	1.842492
2.331000	1.842810
2.331500	1.842492
2.332000	1.842492
2.332500	1.843129
2.333000	1.842810
2.333500	1.841855
2.334000	1.842810
2.334500	1.842810
2.335000	1.842492
2.335500	1.842173
2.336000	1.842492
2.336500	1.841855
2.337000	1.842810
2.337500	1.842492
2.338000	1.842492
2.338500	1.843129
2.339000	1.842810
2.339500	1.842810
2.340000	1.842810
2.340500	1.842492
2.341000	1.842492
2.341500	1.843129
2.342000	1.841855
2.342500	1.843447
2.343000	1.842492
2.343500	1.841855
2.344000	1.843447
2.344500	1.842492
2.345000	1.842810
2.345500	1.842492
2.346000	1.842492
2.346500	1.843447
2.347000	1.842173
2.347500	1.841855
2.348000	1.843129
2.348500	1.842810
2.349000	1.843129
2.349500	1.843447
2.350000	1.841537
2.350500	1.842810
2.351000	1.843766
2.351500	1.842810
2.352000	1.843129
2.352500	1.842492
2.353000	1.842810
2.353500	1.842810
2.354000	1.842810
2.354500	1.842492
2.355000	1.843129
2.355500	1.842173
2.356000	1.843129
2.356500	1.842810
2.357000	1.842173
2.357500	1.842492
2.358000	1.843129
2.358500	1.843129
2.359000	1.842810
2.359500	1.842173
2.360000	1.843447
2.360500	1.843129
2.361000	1.842492
2.361500	1.843447
2.362000	1.842810
2.362500	1.842173
2.363000	1.843129
2.363500	1.842810
2.364000	1.841537
2.364500	1.842810
2.365000	1.842492
2.365500	1.843129
2.366000	1.842492
2.366500	1.841855
2.367000	1.843447
2.367500	1.842492
2.368000	1.842810
2.368500	1.842492
2.369000	1.841537
2.369500	1.842173
2.370000	1.843447
2.370500	1.841855
2.371000	1.843129
2.371500	1.842492
2.372000	1.841855
2.372500	1.843766
2.373000	1.841855
2.373500	1.842492
2.374000	1.842810
2.374500	1.842492
2.375000	1.843129
2.375500	1.842492
2.376000	1.841855
2.376500	1.843447
2.377000	1.843129
2.377500	1.842810
2.378000	1.842810
2.378500	1.841537
2.379000	1.842810
2.379500	1.843129
2.380000	1.842492
2.380500	1.843129
2.381000	1.842492
2.381500	1.842173
2.382000	1.843447
2.382500	1.842173
2.383000	1.841855
2.383500	1.842810
2.384000	1.842173
2.384500	1.843447
2.385000	1.843129
2.385500	1.841855
2.386000	1.843129
2.386500	1.842810
2.387000	1.842173
2.387500	1.843129
2.388000	1.842810
2.388500	1.842810
2.389000	1.843447
2.389500	1.842492
2.390000	1.842492
2.390500	1.843766
2.391000	1.842492
2.391500	1.843447
2.392000	1.842492
2.392500	1.842492
2.393000	1.842810
2.393500	1.842810
2.394000	1.843129
2.394500	1.843766
2.395000	1.841537
2.395500	1.842810
2.396000	1.842492
2.396500	1.842492
2.397000	1.843447
2.397500	1.842492
2.398000	1.843447
2.398500	1.844084
2.399000	1.842173
2.399500	1.843129
2.400000	1.843129
2.400500	1.843129
2.401000	1.843766
2.401500	1.842810
2.402000	1.842492
2.402500	1.843766
2.403000	1.843447
2.403500	1.844084
2.404000	1.844084
2.404500	1.842492
2.405000	1.843447
2.405500	1.843766
2.406000	1.843129
2.406500	1.843447
2.407000	1.842810
2.407500	1.843129
2.408000	1.843766
2.408500	1.843129
2.409000	1.841855
2.409500	1.843129
2.410000	1.842492
2.410500	1.843447
2.411000	1.843447
2.411500	1.842492
2.412000	1.842810
2.412500	1.842810
2.413000	1.842492
2.413500	1.844084
2.414000	1.842810
2.414500	1.841855
2.415000	1.843129
2.415500	1.842492
2.416000	1.842810
2.416500	1.842173
2.417000	1.842492
2.417500	1.843766
2.418000	1.842492
2.418500	1.842492
2.419000	1.843129
2.419500	1.842492
2.420000	1.842810
2.420500	1.843766
2.421000	1.842173
2.421500	1.843129
2.422000	1.843129
2.422500	1.842492
2.423000	1.843129
2.423500	1.842173
2.424000	1.842173
2.424500	1.843766
2.425000	1.842173
2.425500	1.842810
2.426000	1.842810
2.426500	1.842492
2.427000	1.842810
2.427500	1.842810
2.428000	1.841537
2.428500	1.842492
2.429000	1.842492
2.429500	1.842810
2.430000	1.843129
2.430500	1.842492
2.431000	1.841855
2.431500	1.843766
2.432000	1.842173
2.432500	1.842810
2.433000	1.842492
2.433500	1.842492
2.434000	1.842810
2.434500	1.842492
2.435000	1.842492
2.435500	1.843447
2.436000	1.841855
2.436500	1.843447
2.437000	1.842810
2.437500	1.841218
2.438000	1.843129
2.438500	1.842810
2.439000	1.843129
2.439500	1.842810
2.440000	1.842492
2.440500	1.842810
2.441000	1.843129
2.441500	1.841537
2.442000	1.842173
2.442500	1.842810
2.443000	1.842492
2.443500	1.844084
2.444000	1.842492
2.444500	1.841855
2.445000	1.843447
2.445500	1.842173
2.446000	1.843129
2.446500	1.842810
2.447000	1.841855
2.447500	1.843129
2.448000	1.842492
2.448500	1.842810
2.449000	1.843129
2.449500	1.841537
2.450000	1.842492
2.450500	1.843129
2.451000	1.842173
2.451500	1.843129
2.452000	1.842492
2.452500	1.842492
2.453000	1.842810
2.453500	1.842492
2.454000	1.842492
2.454500	1.842810
2.455000	1.841855
2.455500	1.842810
2.456000	1.843129
2.456500	1.841855
2.457000	1.842810
2.457500	1.842173
2.458000	1.842492
2.458500	1.843129
2.459000	1.842173
2.459500	1.843129
2.460000	1.843766
2.460500	1.842173
2.461000	1.842492
2.461500	1.842492
2.462000	1.842492
2.462500	1.842810
2.463000	1.842810
2.463500	1.842173
2.464000	1.843129
2.464500	1.842492
2.465000	1.842810
2.465500	1.842492
2.466000	1.841855
2.466500	1.842492
2.467000	1.842492
2.467500	1.843129
2.468000	1.843129
2.468500	1.842173
2.469000	1.843129
2.469500	1.843129
2.470000	1.842492
2.470500	1.842492
2.471000	1.842810
2.471500	1.842173
2.472000	1.843129
2.472500	1.842492
2.473000	1.841537
2.473500	1.843129
2.474000	1.843129
2.474500	1.842810
2.475000	1.842492
2.475500	1.842492
2.476000	1.841855
2.476500	1.842810
2.477000	1.842492
2.477500	1.843129
2.478000	1.842492
2.478500	1.842492
2.479000	1.843129
2.479500	1.842492
2.480000	1.842492
2.480500	1.842492
2.481000	1.842492
2.481500	1.842810
2.482000	1.843129
2.482500	1.842173
2.483000	1.843129
2.483500	1.842810
2.484000	1.843129
2.484500	1.843129
2.485000	1.842492
2.485500	1.842810
2.486000	1.843129
2.486500	1.842492
2.487000	1.843129
2.487500	1.843129
2.488000	1.841855
2.488500	1.843766
2.489000	1.842492
2.489500	1.841537
2.490000	1.842810
2.490500	1.842173
2.491000	1.843447
2.491500	1.843447
2.492000	1.841855
2.492500	1.843447
2.493000	1.843129
2.493500	1.843129
2.494000	1.842810
2.494500	1.842492
2.495000	1.842810
2.495500	1.843766
2.496000	1.843129
2.496500	1.843129
2.497000	1.842810
2.497500	1.843129
2.498000	1.843129
2.498500	1.842810
2.499000	1.842492
2.499500	1.843129
2.500000	1.843129
2.500500	1.842810
2.501000	1.843129
2.501500	1.842173
2.502000	1.843129
2.502500	1.843766
2.503000	1.842810
2.503500	1.843766
2.504000	1.843129
2.504500	1.842492
2.505000	1.844403
2.505500	1.842810
2.506000	1.843129
2.506500	1.843129
2.507000	1.842492
2.507500	1.843129
2.508000	1.844084
2.508500	1.843129
2.509000	1.843129
2.509500	1.842810
2.510000	1.843129
2.510500	1.843129
2.511000	1.843766
2.511500	1.843129
2.512000	1.843766
2.512500	1.842810
2.513000	1.842810
2.513500	1.842492
2.514000	1.842492
2.514500	1.843766
2.515000	1.842492
2.515500	1.842810
2.516000	1.842810
2.516500	1.842810
2.517000	1.843766
2.517500	1.844084
2.518000	1.842810
2.518500	1.842810
2.519000	1.843766
2.519500	1.842810
2.520000	1.843766
2.520500	1.843129
2.521000	1.842810
2.521500	1.843766
2.522000	1.843129
2.522500	1.843129
2.523000	1.843766
2.523500	1.842173
2.524000	1.843766
2.524500	1.843129
2.525000	1.842810
2.525500	1.842810
2.526000	1.842492
2.526500	1.843129
2.527000	1.844084
2.527500	1.842173
2.528000	1.844084
2.528500	1.843447
2.529000	1.842492
2.529500	1.843129
2.530000	1.842492
2.530500	1.842810
2.531000	1.844084
2.531500	1.843766
2.532000	1.843129
2.532500	1.843766
2.533000	1.842810
2.533500	1.844084
2.534000	1.843766
2.534500	1.842492
2.535000	1.844084
2.535500	1.843766
2.536000	1.843766
2.536500	1.843766
2.537000	1.842492
2.537500	1.843766
2.538000	1.844084
2.538500	1.843129
2.539000	1.843766
2.539500	1.842810
2.540000	1.843447
2.540500	1.844403
2.541000	1.844084
2.541500	1.842810
2.542000	1.843766
2.542500	1.843766
2.543000	1.843766
2.543500	1.844403
2.544000	1.843129
2.544500	1.844084
2.545000	1.844403
2.545500	1.844084
2.546000	1.843766
2.546500	1.843447
2.547000	1.843766
2.547500	1.844403
2.548000	1.842810
2.548500	1.843766
2.549000	1.843129
2.549500	1.842492
2.550000	1.844084
2.550500	1.842810
2.551000	1.842492
2.551500	1.844084
2.552000	1.844403
2.552500	1.843766
2.553000	1.843766
2.553500	1.842810
2.554000	1.843766
2.554500	1.843447
2.555000	1.843766
2.555500	1.844084
2.556000	1.843766
2.556500	1.843766
2.557000	1.844721
2.557500	1.842810
2.558000	1.842810
2.558500	1.843129
2.559000	1.843129
2.559500	1.844084
2.560000	1.843447
2.560500	1.843129
2.561000	1.844084
2.561500	1.842810
2.562000	1.843766
2.562500	1.844403
2.563000	1.842810
2.563500	1.843129
2.564000	1.844403
2.564500	1.843447
2.565000	1.843766
2.565500	1.843447
2.566000	1.843129
2.566500	1.845040
2.567000	1.844084
2.567500	1.843766
2.568000	1.844084
2.568500	1.843447
2.569000	1.843766
2.569500	1.843129
2.570000	1.842810
2.570500	1.844403
2.571000	1.844084
2.571500	1.843766
2.572000	1.843129
2.572500	1.843129
2.573000	1.843766
2.573500	1.844721
2.574000	1.843129
2.574500	1.844084
2.575000	1.843766
2.575500	1.843129
2.576000	1.843766
2.576500	1.843766
2.577000	1.843129
2.577500	1.844084
2.578000	1.843447
2.578500	1.844084
2.579000	1.843129
2.579500	1.843447
2.580000	1.844084
2.580500	1.843766
2.581000	1.843766
2.581500	1.844084
2.582000	1.843129
2.582500	1.843766
2.583000	1.844403
2.583500	1.843766
2.584000	1.843129
2.584500	1.843766
2.585000	1.843766
2.585500	1.844403
2.586000	1.844403
2.586500	1.843766
2.587000	1.843129
2.587500	1.843766
2.588000	1.844084
2.588500	1.844403
2.589000	1.843447
2.589500	1.844403
2.590000	1.843766
2.590500	1.844084
2.591000	1.844721
2.591500	1.843766
2.592000	1.844721
2.592500	1.844721
2.593000	1.844084
2.593500	1.844403
2.594000	1.844403
2.594500	1.843766
2.595000	1.844084
2.595500	1.843766
2.596000	1.843766
2.596500	1.844721
2.597000	1.843129
2.597500	1.844721
2.598000	1.844403
2.598500	1.842810
2.599000	1.844084
2.599500	1.844721
2.600000	1.844084
2.600500	1.844403
2.601000	1.843129
2.601500	1.843766
2.602000	1.844403
2.602500	1.843129
2.603000	1.843766
2.603500	1.843766
2.604000	1.843766
2.604500	1.845040
2.605000	1.844084
2.605500	1.843129
2.606000	1.844721
2.606500	1.843129
2.607000	1.844721
2.607500	1.843447
2.608000	1.844084
2.608500	1.844403
2.609000	1.844084
2.609500	1.844403
2.610000	1.844403
2.610500	1.843766
2.611000	1.844084
2.611500	1.844721
2.612000	1.843447
2.612500	1.843766
2.613000	1.844084
2.613500	1.843129
2.614000	1.844403
2.614500	1.844721
2.615000	1.843766
2.615500	1.844084
2.616000	1.844084
2.616500	1.844084
2.617000	1.843766
2.617500	1.844403
2.618000	1.844084
2.618500	1.844721
2.619000	1.843766
2.619500	1.844084
2.620000	1.843766
2.620500	1.844084
2.621000	1.844403
2.621500	1.843766
2.622000	1.843766
2.622500	1.844403
2.623000	1.843447
2.623500	1.844403
2.624000	1.843766
2.624500	1.844084
2.625000	1.844084
2.625500	1.843447
2.626000	1.843766
2.626500	1.844403
2.627000	1.843129
2.627500	1.843447
2.628000	1.844084
2.628500	1.844084
2.629000	1.843766
2.629500	1.843447
2.630000	1.843766
2.630500	1.844084
2.631000	1.843766
2.631500	1.843766
2.632000	1.844084
2.632500	1.843129
2.633000	1.844084
2.633500	1.843766
2.634000	1.843129
2.634500	1.844721
2.635000	1.844403
2.635500	1.844403
2.636000	1.844084
2.636500	1.842810
2.637000	1.843766
2.637500	1.844721
2.638000	1.844084
2.638500	1.844084
2.639000	1.843766
2.639500	1.843766
2.640000	1.844403
2.640500	1.844084
2.641000	1.844084
2.641500	1.844084
2.642000	1.844084
2.642500	1.844084
2.643000	1.844084
2.643500	1.844084
2.644000	1.844403
2.644500	1.844084
2.645000	1.844403
2.645500	1.844721
2.646000	1.844084
2.646500	1.843766
2.647000	1.845358
2.647500	1.844403
2.648000	1.844721
2.648500	1.844084
2.649000	1.844084
2.649500	1.845040
2.650000	1.844403
2.650500	1.844084
2.651000	1.844721
2.651500	1.843447
2.652000	1.845040
2.652500	1.844721
2.653000	1.844084
2.653500	1.845358
2.654000	1.844403
2.654500	1.845358
2.655000	1.845358
2.655500	1.844721
2.656000	1.845358
2.656500	1.845358
2.657000	1.844721
2.657500	1.845040
2.658000	1.845358
2.658500	1.843766
2.659000	1.845358
2.659500	1.844403
2.660000	1.843766
2.660500	1.845040
2.661000	1.844084
2.661500	1.845040
2.662000	1.845040
2.662500	1.844084
2.663000	1.844721
2.663500	1.845676
2.664000	1.844721
2.664500	1.845040
2.665000	1.844721
2.665500	1.844721
2.666000	1.845358
2.666500	1.845358
2.667000	1.845040
2.667500	1.845040
2.668000	1.845358
2.668500	1.845040
2.669000	1.844721
2.669500	1.844084
2.670000	1.845358
2.670500	1.844721
2.671000	1.844721
2.671500	1.844721
2.672000	1.843447
2.672500	1.845358
2.673000	1.845040
2.673500	1.844721
2.674000	1.845358
2.674500	1.844084
2.675000	1.844721
2.675500	1.845040
2.676000	1.844403
2.676500	1.844403
2.677000	1.844403
2.677500	1.844403
2.678000	1.845040
2.678500	1.844084
2.679000	1.844084
2.679500	1.844721
2.680000	1.845040
2.680500	1.845040
2.681000	1.845040
2.681500	1.844403
2.682000	1.844084
2.682500	1.844403
2.683000	1.844721
2.683500	1.845358
2.684000	1.844084
2.684500	1.844721
2.685000	1.845995
2.685500	1.844403
2.686000	1.844721
2.686500	1.844721
2.687000	1.844721
2.687500	1.845040
2.688000	1.845040
2.688500	1.843766
2.689000	1.845040
2.689500	1.844403
2.690000	1.844721
2.690500	1.845040
2.691000	1.844084
2.691500	1.845358
2.692000	1.845040
2.692500	1.844084
2.693000	1.844084
2.693500	1.844403
2.694000	1.845358
2.694500	1.845040
2.695000	1.844403
2.695500	1.843766
2.696000	1.844721
2.696500	1.843766
2.697000	1.844084
2.697500	1.845040
2.698000	1.844084
2.698500	1.844084
2.699000	1.843766
2.699500	1.844403
2.700000	1.845040
2.700500	1.843766
2.701000	1.844403
2.701500	1.844403
2.702000	1.844403
2.702500	1.844721
2.703000	1.844403
2.703500	1.844403
2.704000	1.845676
2.704500	1.844721
2.705000	1.844084
2.705500	1.844721
2.706000	1.844721
2.706500	1.845040
2.707000	1.845040
2.707500	1.844403
2.708000	1.844721
2.708500	1.844084
2.709000	1.845040
2.709500	1.844721
2.710000	1.843766
2.710500	1.844721
2.711000	1.845358
2.711500	1.844721
2.712000	1.844403
2.712500	1.844084
2.713000	1.844403
2.713500	1.845040
2.714000	1.843766
2.714500	1.844084
2.715000	1.844721
2.715500	1.844721
2.716000	1.845040
2.716500	1.844403
2.717000	1.843129
2.717500	1.844084
2.718000	1.843447
2.718500	1.844084
2.719000	1.844721
2.719500	1.843766
2.720000	1.844084
2.720500	1.844403
2.721000	1.844721
2.721500	1.844721
2.722000	1.843766
2.722500	1.844084
2.723000	1.845040
2.723500	1.844084
2.724000	1.843129
2.724500	1.844084
2.725000	1.843129
2.725500	1.844403
2.726000	1.843766
2.726500	1.843766
2.727000	1.844403
2.727500	1.843766
2.728000	1.845040
2.728500	1.844721
2.729000	1.843129
2.729500	1.843766
2.730000	1.844403
2.730500	1.844403
2.731000	1.844721
2.731500	1.843766
2.732000	1.844403
2.732500	1.845040
2.733000	1.844721
2.733500	1.845040
2.734000	1.844403
2.734500	1.844084
2.735000	1.844721
2.735500	1.844403
2.736000	1.844084
2.736500	1.844403
2.737000	1.844084
2.737500	1.845676
2.738000	1.844721
2.738500	1.844721
2.739000	1.844084
2.739500	1.844403
2.740000	1.844721
2.740500	1.845676
2.741000	1.844403
2.741500	1.844084
2.742000	1.845676
2.742500	1.844721
2.743000	1.844721
2.743500	1.845040
2.744000	1.844721
2.744500	1.845995
2.745000	1.844721
2.745500	1.844403
2.746000	1.845040
2.746500	1.844721
2.747000	1.845995
2.747500	1.845358
2.748000	1.844403
2.748500	1.845358
2.749000	1.845676
2.749500	1.844403
2.750000	1.845040
2.750500	1.844403
2.751000	1.845040
2.751500	1.845040
2.752000	1.845040
2.752500	1.845358
2.753000	1.844721
2.753500	1.844403
2.754000	1.845358
2.754500	1.845040
2.755000	1.844084
2.755500	1.845358
2.756000	1.845040
2.756500	1.845358
2.757000	1.845995
2.757500	1.844084
2.758000	1.845358
2.758500	1.845358
2.759000	1.845358
2.759500	1.845040
2.760000	1.844403
2.760500	1.844721
2.761000	1.845358
2.761500	1.844403
2.762000	1.845040
2.762500	1.845040
2.763000	1.844084
2.763500	1.845040
2.764000	1.844721
2.764500	1.844084
2.765000	1.845040
2.765500	1.843766
2.766000	1.845040
2.766500	1.845040
2.767000	1.844403
2.767500	1.845040
2.768000	1.844721
2.768500	1.845040
2.769000	1.844721
2.769500	1.844403
2.770000	1.845040
2.770500	1.844721
2.771000	1.844084
2.771500	1.844403
2.772000	1.844721
2.772500	1.844721
2.773000	1.845040
2.773500	1.844721
2.774000	1.844084
2.774500	1.844084
2.775000	1.844403
2.775500	1.844721
2.776000	1.844721
2.776500	1.843129
2.777000	1.844721
2.777500	1.844403
2.778000	1.845358
2.778500	1.844721
2.779000	1.844084
2.779500	1.844721
2.780000	1.845040
2.780500	1.844403
2.781000	1.845040
2.781500	1.844403
2.782000	1.844403
2.782500	1.844403
2.783000	1.844721
2.783500	1.844084
2.784000	1.844403
2.784500	1.843129
2.785000	1.844721
2.785500	1.845040
2.786000	1.844084
2.786500	1.844403
2.787000	1.844403
2.787500	1.844084
2.788000	1.844721
2.788500	1.844084
2.789000	1.844403
2.789500	1.845358
2.790000	1.844403
2.790500	1.844084
2.791000	1.845040
2.791500	1.844721
2.792000	1.845040
2.792500	1.844403
2.793000	1.843766
2.793500	1.844084
2.794000	1.844084
2.794500	1.845040
2.795000	1.845040
2.795500	1.844084
2.796000	1.844721
2.796500	1.844721
2.797000	1.844403
2.797500	1.844721
2.798000	1.845040
2.798500	1.844721
2.799000	1.844721
2.799500	1.844084
2.800000	1.844721
2.800500	1.844403
2.801000	1.844721
2.801500	1.844403
2.802000	1.845040
2.802500	1.843766
2.803000	1.844721
2.803500	1.843766
2.804000	1.844403
2.804500	1.844721
2.805000	1.843766
2.805500	1.843447
2.806000	1.844721
2.806500	1.844721
2.807000	1.844403
2.807500	1.843766
2.808000	1.844084
2.808500	1.845040
2.809000	1.844084
2.809500	1.843129
2.810000	1.844403
2.810500	1.843766
2.811000	1.844084
2.811500	1.844084
2.812000	1.842810
2.812500	1.843447
2.813000	1.844084
2.813500	1.844084
2.814000	1.844084
2.814500	1.843766
2.815000	1.843766
2.815500	1.844084
2.816000	1.844084
2.816500	1.844403
2.817000	1.844084
2.817500	1.844084
2.818000	1.845995
2.818500	1.843766
2.819000	1.844403
2.819500	1.844084
2.820000	1.843129
2.820500	1.844721
2.821000	1.843766
2.821500	1.844403
2.822000	1.843766
2.822500	1.844403
2.823000	1.844403
2.823500	1.845358
2.824000	1.843447
2.824500	1.844721
2.825000	1.844084
2.825500	1.843766
2.826000	1.844403
2.826500	1.843766
2.827000	1.844084
2.827500	1.844084
2.828000	1.844084
2.828500	1.843766
2.829000	1.844084
2.829500	1.843766
2.830000	1.845040
2.830500	1.843447
2.831000	1.843129
2.831500	1.843766
2.832000	1.843447
2.832500	1.843766
2.833000	1.844403
2.833500	1.843766
2.834000	1.843766
2.834500	1.844403
2.835000	1.843766
2.835500	1.844721
2.836000	1.844084
2.836500	1.843766
2.837000	1.844721
2.837500	1.844403
2.838000	1.844721
2.838500	1.844084
2.839000	1.843447
2.839500	1.845040
2.840000	1.844084
2.840500	1.843766
2.841000	1.844084
2.841500	1.843129
2.842000	1.844721
2.842500	1.844403
2.843000	1.843129
2.843500	1.844084
2.844000	1.843766
2.844500	1.843766
2.845000	1.844403
2.845500	1.843766
2.846000	1.844084
2.846500	1.844721
2.847000	1.843766
2.847500	1.844084
2.848000	1.844403
2.848500	1.843766
2.849000	1.845040
2.849500	1.844721
2.850000	1.843129
2.850500	1.844084
2.851000	1.843766
2.851500	1.843766
2.852000	1.843766
2.852500	1.843447
2.853000	1.844403
2.853500	1.844403
2.854000	1.843766
2.854500	1.844721
2.855000	1.843766
2.855500	1.843129
2.856000	1.844721
2.856500	1.844403
2.857000	1.843766
2.857500	1.843766
2.858000	1.843766
2.858500	1.843766
2.859000	1.844721
2.859500	1.843129
2.860000	1.845040
2.860500	1.844403
2.861000	1.843766
2.861500	1.844403
2.862000	1.843447
2.862500	1.844084
2.863000	1.843766
2.863500	1.844084
2.864000	1.844721
2.864500	1.844084
2.865000	1.844721
2.865500	1.845358
2.866000	1.844084
2.866500	1.845040
2.867000	1.843766
2.867500	1.843766
2.868000	1.845676
2.868500	1.844403
2.869000	1.844403
2.869500	1.845040
2.870000	1.844084
2.870500	1.844403
2.871000	1.844721
2.871500	1.843766
2.872000	1.844721
2.872500	1.845040
2.873000	1.844403
2.873500	1.845040
2.874000	1.844084
2.874500	1.844403
2.875000	1.844721
2.875500	1.844403
2.876000	1.844084
2.876500	1.844084
2.877000	1.843766
2.877500	1.845040
2.878000	1.844084
2.878500	1.843766
2.879000	1.843766
2.879500	1.842810
2.880000	1.844403
2.880500	1.844084
2.881000	1.843447
2.881500	1.843447
2.882000	1.843766
2.882500	1.843766
2.883000	1.844403
2.883500	1.843766
2.884000	1.844084
2.884500	1.844721
2.885000	1.843766
2.885500	1.844084
2.886000	1.843766
2.886500	1.843129
2.887000	1.845358
2.887500	1.844084
2.888000	1.843129
2.888500	1.844084
2.889000	1.843766
2.889500	1.843766
2.890000	1.844084
2.890500	1.843447
2.891000	1.843766
2.891500	1.844084
2.892000	1.843766
2.892500	1.843766
2.893000	1.843766
2.893500	1.842810
2.894000	1.844403
2.894500	1.843129
2.895000	1.843129
2.895500	1.843129
2.896000	1.842810
2.896500	1.843447
2.897000	1.842810
2.897500	1.842492
2.898000	1.843766
2.898500	1.843766
2.899000	1.843766
2.899500	1.844084
2.900000	1.842810
2.900500	1.844084
2.901000	1.843766
2.901500	1.843129
2.902000	1.843766
2.902500	1.843447
2.903000	1.843766
2.903500	1.843766
2.904000	1.843766
2.904500	1.843129
2.905000	1.843447
2.905500	1.843129
2.906000	1.844084
2.906500	1.843766
2.907000	1.843129
2.907500	1.843766
2.908000	1.843766
2.908500	1.843447
2.909000	1.843766
2.909500	1.843447
2.910000	1.843766
2.910500	1.844084
2.911000	1.843447
2.911500	1.843766
2.912000	1.843766
2.912500	1.843766
2.913000	1.844084
2.913500	1.843766
2.914000	1.842492
2.914500	1.843766
2.915000	1.843766
2.915500	1.843766
2.916000	1.844084
2.916500	1.842492
2.917000	1.844084
2.917500	1.843766
2.918000	1.843129
2.918500	1.844084
2.919000	1.842810
2.919500	1.843766
2.920000	1.844721
2.920500	1.842492
2.921000	1.843766
2.921500	1.843129
2.922000	1.842810
2.922500	1.844403
2.923000	1.843766
2.923500	1.843129
2.924000	1.843766
2.924500	1.842810
2.925000	1.844403
2.925500	1.843129
2.926000	1.842492
2.926500	1.844084
2.927000	1.843129
2.927500	1.844084
2.928000	1.843766
2.928500	1.842492
2.929000	1.843447
2.929500	1.844084
2.930000	1.842810
2.930500	1.843766
2.931000	1.842810
2.931500	1.843766
2.932000	1.844721
2.932500	1.843766
2.933000	1.843129
2.933500	1.844084
2.934000	1.843129
2.934500	1.844403
2.935000	1.844403
2.935500	1.843129
2.936000	1.843766
2.936500	1.843447
2.937000	1.843766
2.937500	1.843766
2.938000	1.843129
2.938500	1.844403
2.939000	1.844403
2.939500	1.843766
2.940000	1.843447
2.940500	1.843766
2.941000	1.843129
2.941500	1.843766
2.942000	1.843129
2.942500	1.843129
2.943000	1.844084
2.943500	1.842810
2.944000	1.845040
2.944500	1.843766
2.945000	1.843129
2.945500	1.843766
2.946000	1.844084
2.946500	1.843766
2.947000	1.844403
2.947500	1.842810
2.948000	1.843766
2.948500	1.844084
2.949000	1.843447
2.949500	1.843129
2.950000	1.843129
2.950500	1.844084
2.951000	1.844084
2.951500	1.843447
2.952000	1.844084
2.952500	1.844084
2.953000	1.843766
2.953500	1.844084
2.954000	1.844403
2.954500	1.843129
2.955000	1.843766
2.955500	1.844403
2.956000	1.844084
2.956500	1.843766
2.957000	1.843447
2.957500	1.844084
2.958000	1.844403
2.958500	1.843766
2.959000	1.843766
2.959500	1.844084
2.960000	1.843766
2.960500	1.845040
2.961000	1.844403
2.961500	1.843766
2.962000	1.843447
2.962500	1.844084
2.963000	1.843447
2.963500	1.844403
2.964000	1.842810
2.964500	1.844084
2.965000	1.843766
2.965500	1.843766
2.966000	1.844721
2.966500	1.844084
2.967000	1.843766
2.967500	1.845358
2.968000	1.844403
2.968500	1.843766
2.969000	1.844403
2.969500	1.843766
2.970000	1.844721
2.970500	1.843766
2.971000	1.843447
2.971500	1.844721
2.972000	1.844084
2.972500	1.844403
2.973000	1.844721
2.973500	1.844084
2.974000	1.844721
2.974500	1.845358
2.975000	1.843766
2.975500	1.845040
2.976000	1.845040
2.976500	1.845358
2.977000	1.845040
2.977500	1.844403
2.978000	1.844084
2.978500	1.844403
2.979000	1.844084
2.979500	1.844084
2.980000	1.843447
2.980500	1.843766
2.981000	1.844721
2.981500	1.844403
2.982000	1.843766
2.982500	1.844721
2.983000	1.843129
2.983500	1.844721
2.984000	1.844403
2.984500	1.843766
2.985000	1.843766
2.985500	1.844084
2.986000	1.844403
2.986500	1.844721
2.987000	1.844084
2.987500	1.843129
2.988000	1.844721
2.988500	1.843766
2.989000	1.844403
2.989500	1.844403
2.990000	1.843447
2.990500	1.843766
2.991000	1.844721
2.991500	1.844721
2.992000	1.844721
2.992500	1.844084
2.993000	1.843766
2.993500	1.845040
2.994000	1.843766
2.994500	1.844084
2.995000	1.844084
2.995500	1.844084
2.996000	1.844403
2.996500	1.845040
2.997000	1.843766
2.997500	1.844721
2.998000	1.844084
2.998500	1.845040
2.999000	1.844721
2.999500	1.844084
3.000000	1.845358
3.000500	1.844721
3.001000	1.845040
3.001500	1.844721
3.002000	1.843766
3.002500	1.843766
3.003000	1.845040
3.003500	1.844084
3.004000	1.844403
3.004500	1.844721
3.005000	1.844403
3.005500	1.844721
3.006000	1.844721
3.006500	1.844084
3.007000	1.844721
3.007500	1.845040
3.008000	1.844721
3.008500	1.845040
3.009000	1.844084
3.009500	1.845040
3.010000	1.845040
3.010500	1.844721
3.011000	1.845358
3.011500	1.844403
3.012000	1.844721
3.012500	1.844403
3.013000	1.844084
3.013500	1.845995
3.014000	1.844721
3.014500	1.844403
3.015000	1.845040
3.015500	1.844403
3.016000	1.844084
3.016500	1.845040
3.017000	1.844403
3.017500	1.845358
3.018000	1.845040
3.018500	1.843766
3.019000	1.845676
3.019500	1.845040
3.020000	1.845040
3.020500	1.845676
3.021000	1.844084
3.021500	1.844084
3.022000	1.845358
3.022500	1.844084
3.023000	1.845040
3.023500	1.844403
3.024000	1.844084
3.024500	1.845040
3.025000	1.844403
3.025500	1.843447
3.026000	1.844084
3.026500	1.844084
3.027000	1.844084
3.027500	1.844403
3.028000	1.843129
3.028500	1.845040
3.029000	1.845040
3.029500	1.843766
3.030000	1.844403
3.030500	1.844084
3.031000	1.843766
3.031500	1.844721
3.032000	1.844084
3.032500	1.844084
3.033000	1.844403
3.033500	1.843766
3.034000	1.844403
3.034500	1.844084
3.035000	1.843766
3.035500	1.845040
3.036000	1.844084
3.036500	1.844084
3.037000	1.844084
3.037500	1.843766
3.038000	1.844084
3.038500	1.845358
3.039000	1.843766
3.039500	1.844084
3.040000	1.844721
3.040500	1.843766
3.041000	1.844721
3.041500	1.843447
3.042000	1.843447
3.042500	1.844084
3.043000	1.843129
3.043500	1.844403
3.044000	1.844721
3.044500	1.843129
3.045000	1.844721
3.045500	1.844403
3.046000	1.844721
3.046500	1.845040
3.047000	1.843447
3.047500	1.844403
3.048000	1.844721
3.048500	1.843766
3.049000	1.844721
3.049500	1.843766
3.050000	1.843447
3.050500	1.844084
3.051000	1.843766
3.051500	1.843766
3.052000	1.844721
3.052500	1.843766
3.053000	1.844084
3.053500	1.844084
3.054000	1.843766
3.054500	1.844403
3.055000	1.843766
3.055500	1.844403
3.056000	1.844084
3.056500	1.843129
3.057000	1.844403
3.057500	1.844403
3.058000	1.844084
3.058500	1.844084
3.059000	1.843766
3.059500	1.843766
3.060000	1.844721
3.060500	1.844403
3.061000	1.844403
3.061500	1.844721
3.062000	1.844403
3.062500	1.845040
3.063000	1.844721
3.063500	1.843766
3.064000	1.844403
3.064500	1.844084
3.065000	1.844721
3.065500	1.844403
3.066000	1.844084
3.066500	1.845358
3.067000	1.845040
3.067500	1.843766
3.068000	1.844721
3.068500	1.844084
3.069000	1.844084
3.069500	1.845358
3.070000	1.844403
3.070500	1.844403
3.071000	1.844403
3.071500	1.843766
3.072000	1.843766
3.072500	1.843766
3.073000	1.843766
3.073500	1.845358
3.074000	1.844403
3.074500	1.844403
3.075000	1.845676
3.075500	1.844084
3.076000	1.844721
3.076500	1.845040
3.077000	1.844721
3.077500	1.844721
3.078000	1.844721
3.078500	1.844403
3.079000	1.845040
3.079500	1.844721
3.080000	1.844403
3.080500	1.845040
3.081000	1.843766
3.081500	1.844403
3.082000	1.845676
3.082500	1.844403
3.083000	1.845040
3.083500	1.845358
3.084000	1.845040
3.084500	1.844721
3.085000	1.844403
3.085500	1.845358
3.086000	1.845358
3.086500	1.845358
3.087000	1.845040
3.087500	1.845358
3.088000	1.845358
3.088500	1.845358
3.089000	1.845040
3.089500	1.845358
3.090000	1.845358
3.090500	1.845358
3.091000	1.845676
3.091500	1.845040
3.092000	1.844403
3.092500	1.845676
3.093000	1.845040
3.093500	1.845358
3.094000	1.845040
3.094500	1.844403
3.095000	1.844403
3.095500	1.845995
3.096000	1.845358
3.096500	1.845676
3.097000	1.844084
3.097500	1.845040
3.098000	1.845358
3.098500	1.845040
3.099000	1.844721
3.099500	1.845358
3.100000	1.844721
3.100500	1.845358
3.101000	1.845040
3.101500	1.844403
3.102000	1.845040
3.102500	1.845040
3.103000	1.844721
3.103500	1.844721
3.104000	1.844084
3.104500	1.844403
3.105000	1.845358
3.105500	1.844721
3.106000	1.845040
3.106500	1.844084
3.107000	1.844403
3.107500	1.845358
3.108000	1.844403
3.108500	1.844084
3.109000	1.844403
3.109500	1.844084
3.110000	1.845040
3.110500	1.844721
3.111000	1.843766
3.111500	1.844084
3.112000	1.844403
3.112500	1.845040
3.113000	1.844721
3.113500	1.845040
3.114000	1.843766
3.114500	1.845040
3.115000	1.843766
3.115500	1.843766
3.116000	1.844084
3.116500	1.844084
3.117000	1.844721
3.117500	1.845040
3.118000	1.843766
3.118500	1.844403
3.119000	1.844084
3.119500	1.845040
3.120000	1.844721
3.120500	1.843129
3.121000	1.843766
3.121500	1.845040
3.122000	1.843766
3.122500	1.844403
3.123000	1.843447
3.123500	1.843766
3.124000	1.844721
3.124500	1.843766
3.125000	1.844403
3.125500	1.843766
3.126000	1.844084
3.126500	1.844403
3.127000	1.844403
3.127500	1.843447
3.128000	1.844403
3.128500	1.844403
3.129000	1.844403
3.129500	1.845358
3.130000	1.843766
3.130500	1.844721
3.131000	1.845040
3.131500	1.844084
3.132000	1.845040
3.132500	1.844084
3.133000	1.844084
3.133500	1.845040
3.134000	1.844084
3.134500	1.843766
3.135000	1.844403
3.135500	1.843766
3.136000	1.844721
3.136500	1.844403
3.137000	1.843447
3.137500	1.844403
3.138000	1.844084
3.138500	1.843766
3.139000	1.844721
3.139500	1.843766
3.140000	1.844721
3.140500	1.844403
3.141000	1.844403
3.141500	1.845040
3.142000	1.844403
3.142500	1.844084
3.143000	1.844721
3.143500	1.844403
3.144000	1.843766
3.144500	1.844084
3.145000	1.843766
3.145500	1.844721
3.146000	1.844403
3.146500	1.843447
3.147000	1.844721
3.147500	1.844084
3.148000	1.844403
3.148500	1.845040
3.149000	1.843129
3.149500	1.844084
3.150000	1.844721
3.150500	1.844403
3.151000	1.844084
3.151500	1.844084
3.152000	1.844403
3.152500	1.845040
3.153000	1.844403
3.153500	1.844084
3.154000	1.844084
3.154500	1.844721
3.155000	1.844721
3.155500	1.844721
3.156000	1.843129
3.156500	1.844403
3.157000	1.844403
3.157500	1.844403
3.158000	1.844084
3.158500	1.843766
3.159000	1.843766
3.159500	1.844403
3.160000	1.844721
3.160500	1.844403
3.161000	1.843766
3.161500	1.844084
3.162000	1.844403
3.162500	1.843766
3.163000	1.843766
3.163500	1.844084
3.164000	1.843766
3.164500	1.844084
3.165000	1.843766
3.165500	1.843447
3.166000	1.844084
3.166500	1.844084
3.167000	1.843766
3.167500	1.845040
3.168000	1.844403
3.168500	1.844721
3.169000	1.845358
3.169500	1.844403
3.170000	1.844721
3.170500	1.844084
3.171000	1.844403
3.171500	1.845040
3.172000	1.844084
3.172500	1.844084
3.173000	1.844721
3.173500	1.844721
3.174000	1.844721
3.174500	1.845358
3.175000	1.843766
3.175500	1.845040
3.176000	1.844721
3.176500	1.844721
3.177000	1.844721
3.177500	1.844084
3.178000	1.844403
3.178500	1.844403
3.179000	1.844403
3.179500	1.844403
3.180000	1.844403
3.180500	1.843766
3.181000	1.845040
3.181500	1.844084
3.182000	1.844084
3.182500	1.844403
3.183000	1.844084
3.183500	1.845040
3.184000	1.844721
3.184500	1.843766
3.185000	1.844084
3.185500	1.844721
3.186000	1.843766
3.186500	1.843766
3.187000	1.843129
3.187500	1.844084
3.188000	1.844084
3.188500	1.844084
3.189000	1.844721
3.189500	1.843766
3.190000	1.843766
3.190500	1.844721
3.191000	1.844403
3.191500	1.843129
3.192000	1.844403
3.192500	1.843766
3.193000	1.844084
3.193500	1.844084
3.194000	1.843129
3.194500	1.844403
3.195000	1.844721
3.195500	1.844403
3.196000	1.843447
3.196500	1.844084
3.197000	1.843766
3.197500	1.844403
3.198000	1.843766
3.198500	1.844084
3.199000	1.844721
3.199500	1.844084
3.200000	1.845358
3.200500	1.844084
3.201000	1.842810
3.201500	1.844403
3.202000	1.844084
3.202500	1.844084
3.203000	1.844403
3.203500	1.843129
3.204000	1.843447
3.204500	1.844721
3.205000	1.843129
3.205500	1.844084
3.206000	1.843447
3.206500	1.844084
3.207000	1.845358
3.207500	1.843129
3.208000	1.842810
3.208500	1.843447
3.209000	1.843129
3.209500	1.844084
3.210000	1.843447
3.210500	1.843129
3.211000	1.843766
3.211500	1.844084
3.212000	1.844084
3.212500	1.843766
3.213000	1.842810
3.213500	1.843766
3.214000	1.843447
3.214500	1.842810
3.215000	1.844084
3.215500	1.843129
3.216000	1.843129
3.216500	1.844084
3.217000	1.844084
3.217500	1.843447
3.218000	1.843447
3.218500	1.843766
3.219000	1.844084
3.219500	1.844084
3.220000	1.843129
3.220500	1.844084
3.221000	1.843766
3.221500	1.844403
3.222000	1.844084
3.222500	1.842810
3.223000	1.843766
3.223500	1.844084
3.224000	1.843766
3.224500	1.844084
3.225000	1.843766
3.225500	1.843766
3.226000	1.844721
3.226500	1.844084
3.227000	1.844084
3.227500	1.843766
3.228000	1.843447
3.228500	1.844084
3.229000	1.844403
3.229500	1.843447
3.230000	1.844084
3.230500	1.843766
3.231000	1.844403
3.231500	1.844403
3.232000	1.843766
3.232500	1.844403
3.233000	1.844721
3.233500	1.844403
3.234000	1.844084
3.234500	1.843447
3.235000	1.843766
3.235500	1.844403
3.236000	1.843766
3.236500	1.843766
3.237000	1.843766
3.237500	1.844084
3.238000	1.844084
3.238500	1.844084
3.239000	1.843447
3.239500	1.844084
3.240000	1.844084
3.240500	1.843766
3.241000	1.844403
3.241500	1.843766
3.242000	1.844403
3.242500	1.844084
3.243000	1.844721
3.243500	1.844721
3.244000	1.843766
3.244500	1.843766
3.245000	1.844403
3.245500	1.844721
3.246000	1.844084
3.246500	1.844084
3.247000	1.844084
3.247500	1.844721
3.248000	1.843766
3.248500	1.843766
3.249000	1.843766
3.249500	1.843766
3.250000	1.844721
3.250500	1.844084
3.251000	1.843766
3.251500	1.844403
3.252000	1.844403
3.252500	1.843766
3.253000	1.844084
3.253500	1.843766
3.254000	1.843766
3.254500	1.845040
3.255000	1.844403
3.255500	1.844084
3.256000	1.844721
3.256500	1.843766
3.257000	1.844403
3.257500	1.843766
3.258000	1.844084
3.258500	1.844084
3.259000	1.844403
3.259500	1.844084
3.260000	1.844403
3.260500	1.843129
3.261000	1.844721
3.261500	1.844721
3.262000	1.844084
3.262500	1.844721
3.263000	1.843447
3.263500	1.844084
3.264000	1.844403
3.264500	1.844084
3.265000	1.844403
3.265500	1.844084
3.266000	1.844403
3.266500	1.845040
3.267000	1.843766
3.267500	1.843129
3.268000	1.844721
3.268500	1.844084
3.269000	1.845040
3.269500	1.844403
3.270000	1.843766
3.270500	1.844084
3.271000	1.845040
3.271500	1.844721
3.272000	1.845358
3.272500	1.844403
3.273000	1.844084
3.273500	1.845040
3.274000	1.844084
3.274500	1.844403
3.275000	1.844084
3.275500	1.844084
3.276000	1.845040
3.276500	1.845040
3.277000	1.844084
3.277500	1.845040
3.278000	1.844403
3.278500	1.844403
3.279000	1.844721
3.279500	1.844403
3.280000	1.844721
3.280500	1.844721
3.281000	1.843766
3.281500	1.845358
3.282000	1.843766
3.282500	1.844721
3.283000	1.845040
3.283500	1.844084
3.284000	1.845040
3.284500	1.844084
3.285000	1.844084
3.285500	1.845040
3.286000	1.844084
3.286500	1.843766
3.287000	1.844721
3.287500	1.844403
3.288000	1.844721
3.288500	1.844721
3.289000	1.844084
3.289500	1.844721
3.290000	1.845040
3.290500	1.844084
3.291000	1.845040
3.291500	1.844403
3.292000	1.844403
3.292500	1.845040
3.293000	1.843766
3.293500	1.844721
3.294000	1.844721
3.294500	1.844084
3.295000	1.845040
3.295500	1.845040
3.296000	1.844084
3.296500	1.844721
3.297000	1.844403
3.297500	1.845040
3.298000	1.844084
3.298500	1.844084
3.299000	1.844403
3.299500	1.844403
3.300000	1.845040
3.300500	1.844084
3.301000	1.844084
3.301500	1.844084
3.302000	1.845358
3.302500	1.845040
3.303000	1.844721
3.303500	1.845040
3.304000	1.844721
3.304500	1.844403
3.305000	1.845358
3.305500	1.844721
3.306000	1.845040
3.306500	1.844084
3.307000	1.844721
3.307500	1.845040
3.308000	1.844403
3.308500	1.844721
3.309000	1.844721
3.309500	1.845040
3.310000	1.845040
3.310500	1.844084
3.311000	1.844403
3.311500	1.845676
3.312000	1.844403
3.312500	1.845040
3.313000	1.844084
3.313500	1.844721
3.314000	1.845040
3.314500	1.844721
3.315000	1.844084
3.315500	1.845040
3.316000	1.844403
3.316500	1.845040
3.317000	1.845040
3.317500	1.843129
3.318000	1.844721
3.318500	1.844403
3.319000	1.844084
3.319500	1.845040
3.320000	1.844721
3.320500	1.844084
3.321000	1.845040
3.321500	1.844084
3.322000	1.844721
3.322500	1.844403
3.323000	1.843766
3.323500	1.845040
3.324000	1.844084
3.324500	1.843766
3.325000	1.845040
3.325500	1.843766
3.326000	1.844403
3.326500	1.844721
3.327000	1.843129
3.327500	1.845040
3.328000	1.845358
3.328500	1.844721
3.329000	1.844721
3.329500	1.843766
3.330000	1.844403
3.330500	1.844721
3.331000	1.844721
3.331500	1.843766
3.332000	1.844403
3.332500	1.844403
3.333000	1.845676
3.333500	1.844084
3.334000	1.844084
3.334500	1.844084
3.335000	1.844403
3.335500	1.844721
3.336000	1.845358
3.336500	1.844084
3.337000	1.845040
3.337500	1.846313
3.338000	1.845358
3.338500	1.845358
3.339000	1.844403
3.339500	1.844403
3.340000	1.845358
3.340500	1.844721
3.341000	1.844721
3.341500	1.844403
3.342000	1.844721
3.342500	1.845040
3.343000	1.844403
3.343500	1.843447
3.344000	1.845995
3.344500	1.844084
3.345000	1.845040
3.345500	1.845676
3.346000	1.844403
3.346500	1.845358
3.347000	1.845358
3.347500	1.844403
3.348000	1.845358
3.348500	1.845040
3.349000	1.845040
3.349500	1.845358
3.350000	1.844721
3.350500	1.845358
3.351000	1.844403
3.351500	1.844403
3.352000	1.845358
3.352500	1.844721
3.353000	1.844721
3.353500	1.845040
3.354000	1.845040
3.354500	1.845676
3.355000	1.844721
3.355500	1.844084
3.356000	1.844403
3.356500	1.845040
3.357000	1.845040
3.357500	1.845040
3.358000	1.845358
3.358500	1.844721
3.359000	1.845995
3.359500	1.844403
3.360000	1.844721
3.360500	1.844721
3.361000	1.845040
3.361500	1.844403
3.362000	1.845358
3.362500	1.844721
3.363000	1.845040
3.363500	1.845040
3.364000	1.845358
3.364500	1.844721
3.365000	1.844084
3.365500	1.844721
3.366000	1.845040
3.366500	1.844403
3.367000	1.845040
3.367500	1.844403
3.368000	1.844084
3.368500	1.845040
3.369000	1.844084
3.369500	1.844084
3.370000	1.844721
3.370500	1.844403
3.371000	1.845358
3.371500	1.844721
3.372000	1.843766
3.372500	1.845040
3.373000	1.845040
3.373500	1.844721
3.374000	1.844403
3.374500	1.843447
3.375000	1.844721
3.375500	1.845995
3.376000	1.844721
3.376500	1.845040
3.377000	1.845040
3.377500	1.845040
3.378000	1.845040
3.378500	1.845358
3.379000	1.844403
3.379500	1.845358
3.380000	1.844721
3.380500	1.845358
3.381000	1.845358
3.381500	1.844721
3.382000	1.845040
3.382500	1.845676
3.383000	1.845676
3.383500	1.845676
3.384000	1.845040
3.384500	1.845995
3.385000	1.845358
3.385500	1.844084
3.386000	1.844403
3.386500	1.844403
3.387000	1.844721
3.387500	1.845676
3.388000	1.844721
3.388500	1.844721
3.389000	1.845040
3.389500	1.844721
3.390000	1.845995
3.390500	1.844721
3.391000	1.844403
3.391500	1.845040
3.392000	1.844721
3.392500	1.845040
3.393000	1.845040
3.393500	1.844403
3.394000	1.845040
3.394500	1.845040
3.395000	1.844721
3.395500	1.844721
3.396000	1.844403
3.396500	1.844403
3.397000	1.845040
3.397500	1.844721
3.398000	1.844084
3.398500	1.845040
3.399000	1.844403
3.399500	1.845358
3.400000	1.845040
3.400500	1.844721
3.401000	1.845358
3.401500	1.845358
3.402000	1.845358
3.402500	1.845040
3.403000	1.844084
3.403500	1.844403
3.404000	1.845676
3.404500	1.845040
3.405000	1.844721
3.405500	1.844721
3.406000	1.844403
3.406500	1.845358
3.407000	1.844084
3.407500	1.844084
3.408000	1.844084
3.408500	1.844721
3.409000	1.844721
3.409500	1.845040
3.410000	1.844084
3.410500	1.844721
3.411000	1.844721
3.411500	1.844403
3.412000	1.844721
3.412500	1.843766
3.413000	1.844403
3.413500	1.845358
3.414000	1.843766
3.414500	1.844084
3.415000	1.844721
3.415500	1.844084
3.416000	1.845358
3.416500	1.844084
3.417000	1.844721
3.417500	1.845358
3.418000	1.845040
3.418500	1.845358
3.419000	1.845040
3.419500	1.844403
3.420000	1.845040
3.420500	1.845358
3.421000	1.844084
3.421500	1.844721
3.422000	1.844403
3.422500	1.844403
3.423000	1.845358
3.423500	1.844721
3.424000	1.844721
3.424500	1.844403
3.425000	1.843766
3.425500	1.845040
3.426000	1.844403
3.426500	1.844721
3.427000	1.845358
3.427500	1.844721
3.428000	1.845358
3.428500	1.845358
3.429000	1.844084
3.429500	1.844403
3.430000	1.845040
3.430500	1.845040
3.431000	1.845040
3.431500	1.844721
3.432000	1.844721
3.432500	1.846313
3.433000	1.844403
3.433500	1.844721
3.434000	1.844403
3.434500	1.844721
3.435000	1.845676
3.435500	1.845040
3.436000	1.844721
3.436500	1.844403
3.437000	1.844721
3.437500	1.845358
3.438000	1.845040
3.438500	1.844403
3.439000	1.845358
3.439500	1.844721
3.440000	1.845040
3.440500	1.844721
3.441000	1.844403
3.441500	1.845040
3.442000	1.845995
3.442500	1.845040
3.443000	1.845040
3.443500	1.844721
3.444000	1.845358
3.444500	1.844721
3.445000	1.844721
3.445500	1.844721
3.446000	1.845995
3.446500	1.845040
3.447000	1.845676
3.447500	1.845358
3.448000	1.844721
3.448500	1.846313
3.449000	1.845358
3.449500	1.845995
3.450000	1.846313
3.450500	1.845040
3.451000	1.845358
3.451500	1.846632
3.452000	1.844721
3.452500	1.845995
3.453000	1.845040
3.453500	1.844721
3.454000	1.846313
3.454500	1.845040
3.455000	1.844721
3.455500	1.845358
3.456000	1.845040
3.456500	1.845358
3.457000	1.845040
3.457500	1.844403
3.458000	1.845358
3.458500	1.845358
3.459000	1.845358
3.459500	1.845358
3.460000	1.845040
3.460500	1.845995
3.461000	1.845995
3.461500	1.845358
3.462000	1.845995
3.462500	1.845676
3.463000	1.845676
3.463500	1.846313
3.464000	1.845995
3.464500	1.845040
3.465000	1.846313
3.465500	1.845358
3.466000	1.845995
3.466500	1.845358
3.467000	1.845676
3.467500	1.845358
3.468000	1.846313
3.468500	1.845995
3.469000	1.846313
3.469500	1.845040
3.470000	1.845676
3.470500	1.846313
3.471000	1.845676
3.471500	1.845676
3.472000	1.845040
3.472500	1.844403
3.473000	1.846632
3.473500	1.845995
3.474000	1.845358
3.474500	1.845358
3.475000	1.844721
3.475500	1.846313
3.476000	1.845358
3.476500	1.844403
3.477000	1.845358
3.477500	1.845995
3.478000	1.845040
3.478500	1.846313
3.479000	1.844721
3.479500	1.844403
3.480000	1.845358
3.480500	1.845040
3.481000	1.845676
3.481500	1.844721
3.482000	1.844721
3.482500	1.845995
3.483000	1.844403
3.483500	1.845040
3.484000	1.844721
3.484500	1.845040
3.485000	1.844721
3.485500	1.845358
3.486000	1.843766
3.486500	1.845040
3.487000	1.845040
3.487500	1.844721
3.488000	1.845358
3.488500	1.844403
3.489000	1.845040
3.489500	1.845358
3.490000	1.844721
3.490500	1.844721
3.491000	1.843766
3.491500	1.844721
3.492000	1.845676
3.492500	1.844403
3.493000	1.844403
3.493500	1.844721
3.494000	1.844403
3.494500	1.844721
3.495000	1.844084
3.495500	1.843766
3.496000	1.844721
3.496500	1.844403
3.497000	1.843447
3.497500	1.844403
3.498000	1.843447
3.498500	1.844084
3.499000	1.844721
3.499500	1.843447
3.500000	1.844084
3.500500	1.843447
3.501000	1.843447
3.501500	1.843766
3.502000	1.844084
3.502500	1.843129
3.503000	1.844084
3.503500	1.843766
3.504000	1.844084
3.504500	1.844403
3.505000	1.842492
3.505500	1.844721
3.506000	1.844084
3.506500	1.844084
3.507000	1.844721
3.507500	1.843766
3.508000	1.844084
3.508500	1.844721
3.509000	1.844084
3.509500	1.843766
3.510000	1.843766
3.510500	1.843129
3.511000	1.845040
3.511500	1.844403
3.512000	1.843447
3.512500	1.844084
3.513000	1.844403
3.513500	1.844721
3.514000	1.844084
3.514500	1.842173
3.515000	1.844084
3.515500	1.844084
3.516000	1.843766
3.516500	1.843447
3.517000	1.843766
3.517500	1.843766
3.518000	1.844721
3.518500	1.844084
3.519000	1.844084
3.519500	1.844084
3.520000	1.843766
3.520500	1.844721
3.521000	1.844403
3.521500	1.843766
3.522000	1.844403
3.522500	1.844403
3.523000	1.844084
3.523500	1.843766
3.524000	1.843766
3.524500	1.844084
3.525000	1.844403
3.525500	1.844084
3.526000	1.845040
3.526500	1.844084
3.527000	1.844084
3.527500	1.844721
3.528000	1.844084
3.528500	1.843129
3.529000	1.843129
3.529500	1.844403
3.530000	1.845040
3.530500	1.844084
3.531000	1.843129
3.531500	1.845040
3.532000	1.844403
3.532500	1.844721
3.533000	1.844403
3.533500	1.844721
3.534000	1.844403
3.534500	1.844721
3.535000	1.844403
3.535500	1.844721
3.536000	1.843766
3.536500	1.843766
3.537000	1.844721
3.537500	1.844084
3.538000	1.843766
3.538500	1.844084
3.539000	1.843766
3.539500	1.844721
3.540000	1.844084
3.540500	1.843766
3.541000	1.844721
3.541500	1.844084
3.542000	1.843766
3.542500	1.845040
3.543000	1.844084
3.543500	1.844084
3.544000	1.844721
3.544500	1.845040
3.545000	1.845040
3.545500	1.843766
3.546000	1.843766
3.546500	1.845040
3.547000	1.844084
3.547500	1.844721
3.548000	1.843766
3.548500	1.844084
3.549000	1.844721
3.549500	1.844721
3.550000	1.843129
3.550500	1.844721
3.551000	1.844403
3.551500	1.844721
3.552000	1.844403
3.552500	1.844084
3.553000	1.844403
3.553500	1.845676
3.554000	1.844403
3.554500	1.845358
3.555000	1.844721
3.555500	1.844403
3.556000	1.845040
3.556500	1.844721
3.557000	1.845040
3.557500	1.844403
3.558000	1.843766
3.558500	1.845040
3.559000	1.844403
3.559500	1.844721
3.560000	1.844721
3.560500	1.844721
3.561000	1.845358
3.561500	1.845040
3.562000	1.844084
3.562500	1.844721
3.563000	1.845676
3.563500	1.844403
3.564000	1.845358
3.564500	1.843766
3.565000	1.844403
3.565500	1.845358
3.566000	1.844084
3.566500	1.844084
3.567000	1.844084
3.567500	1.845040
3.568000	1.844721
3.568500	1.844721
3.569000	1.843447
3.569500	1.844084
3.570000	1.844403
3.570500	1.844084
3.571000	1.845040
3.571500	1.843447
3.572000	1.844084
3.572500	1.844403
3.573000	1.844084
3.573500	1.844403
3.574000	1.843766
3.574500	1.844084
3.575000	1.844721
3.575500	1.844721
3.576000	1.844084
3.576500	1.843766
3.577000	1.844084
3.577500	1.844721
3.578000	1.844721
3.578500	1.843766
3.579000	1.844403
3.579500	1.844721
3.580000	1.843766
3.580500	1.844403
3.581000	1.842810
3.581500	1.844084
3.582000	1.844084
3.582500	1.844084
3.583000	1.844721
3.583500	1.843766
3.584000	1.843766
3.584500	1.844721
3.585000	1.844084
3.585500	1.844721
3.586000	1.844084
3.586500	1.843766
3.587000	1.845040
3.587500	1.844403
3.588000	1.844084
3.588500	1.844721
3.589000	1.843447
3.589500	1.844721
3.590000	1.844403
3.590500	1.843766
3.591000	1.843766
3.591500	1.844721
3.592000	1.844721
3.592500	1.844721
3.593000	1.844721
3.593500	1.844084
3.594000	1.844403
3.594500	1.843766
3.595000	1.843766
3.595500	1.843766
3.596000	1.844403
3.596500	1.844721
3.597000	1.844721
3.597500	1.843447
3.598000	1.844084
3.598500	1.844084
3.599000	1.843766
3.599500	1.844721
3.600000	1.843766
3.600500	1.844403
3.601000	1.844403
3.601500	1.843766
3.602000	1.844721
3.602500	1.843129
3.603000	1.843129
3.603500	1.845040
3.604000	1.844403
3.604500	1.843766
3.605000	1.843766
3.605500	1.843766
3.606000	1.844084
3.606500	1.844084
3.607000	1.843447
3.607500	1.843766
3.608000	1.843129
3.608500	1.844084
3.609000	1.844084
3.609500	1.843129
3.610000	1.843766
3.610500	1.843766
3.611000	1.843766
3.611500	1.844403
3.612000	1.843766
3.612500	1.844084
3.613000	1.844084
3.613500	1.843766
3.614000	1.843766
3.614500	1.843766
3.615000	1.843766
3.615500	1.844084
3.616000	1.844084
3.616500	1.843766
3.617000	1.843766
3.617500	1.843129
3.618000	1.844084
3.618500	1.843766
3.619000	1.843129
3.619500	1.844084
3.620000	1.843447
3.620500	1.844084
3.621000	1.844403
3.621500	1.842810
3.622000	1.843447
3.622500	1.844403
3.623000	1.843447
3.623500	1.844084
3.624000	1.843447
3.624500	1.843766
3.625000	1.844084
3.625500	1.843766
3.626000	1.843766
3.626500	1.844084
3.627000	1.843766
3.627500	1.844084
3.628000	1.844084
3.628500	1.843447
3.629000	1.844084
3.629500	1.844403
3.630000	1.843766
3.630500	1.844084
3.631000	1.843129
3.631500	1.843766
3.632000	1.844721
3.632500	1.843766
3.633000	1.843129
3.633500	1.843447
3.634000	1.843447
3.634500	1.843766
3.635000	1.843766
3.635500	1.843129
3.636000	1.844084
3.636500	1.843129
3.637000	1.844084
3.637500	1.843766
3.638000	1.841855
3.638500	1.844403
3.639000	1.843766
3.639500	1.843447
3.640000	1.843766
3.640500	1.843129
3.641000	1.843447
3.641500	1.844403
3.642000	1.842810
3.642500	1.843766
3.643000	1.843447
3.643500	1.844084
3.644000	1.844721
3.644500	1.842492
3.645000	1.843447
3.645500	1.843766
3.646000	1.843129
3.646500	1.844084
3.647000	1.843129
3.647500	1.842810
3.648000	1.843766
3.648500	1.843766
3.649000	1.844084
3.649500	1.843766
3.650000	1.843447
3.650500	1.843766
3.651000	1.844084
3.651500	1.843766
3.652000	1.844084
3.652500	1.842810
3.653000	1.843766
3.653500	1.844084
3.654000	1.843129
3.654500	1.843129
3.655000	1.842810
3.655500	1.842810
3.656000	1.843766
3.656500	1.843766
3.657000	1.842810
3.657500	1.843447
3.658000	1.843129
3.658500	1.843129
3.659000	1.843766
3.659500	1.841855
3.660000	1.843447
3.660500	1.843129
3.661000	1.843129
3.661500	1.843766
3.662000	1.842810
3.662500	1.842173
3.663000	1.843766
3.663500	1.842810
3.664000	1.842810
3.664500	1.843129
3.665000	1.842492
3.665500	1.843766
3.666000	1.842173
3.666500	1.842492
3.667000	1.843129
3.667500	1.842810
3.668000	1.842810
3.668500	1.843129
3.669000	1.842492
3.669500	1.842810
3.670000	1.843129
3.670500	1.842810
3.671000	1.843447
3.671500	1.842492
3.672000	1.843129
3.672500	1.843129
3.673000	1.842492
3.673500	1.842810
3.674000	1.842810
3.674500	1.842810
3.675000	1.843129
3.675500	1.843129
3.676000	1.842492
3.676500	1.843129
3.677000	1.841855
3.677500	1.843766
3.678000	1.842492
3.678500	1.842810
3.679000	1.842492
3.679500	1.842810
3.680000	1.842492
3.680500	1.843129
3.681000	1.841855
3.681500	1.843129
3.682000	1.843129
3.682500	1.842810
3.683000	1.842173
3.683500	1.842810
3.684000	1.841855
3.684500	1.842492
3.685000	1.843129
3.685500	1.842492
3.686000	1.842810
3.686500	1.842810
3.687000	1.842810
3.687500	1.842810
3.688000	1.842173
3.688500	1.842492
3.689000	1.843129
3.689500	1.842492
3.690000	1.842810
3.690500	1.842173
3.691000	1.843129
3.691500	1.843129
3.692000	1.841855
3.692500	1.842492
3.693000	1.842810
3.693500	1.842492
3.694000	1.844084
3.694500	1.842810
3.695000	1.842492
3.695500	1.843129
3.696000	1.842492
3.696500	1.843129
3.697000	1.842810
3.697500	1.842492
3.698000	1.843129
3.698500	1.842810
3.699000	1.842810
3.699500	1.842810
3.700000	1.842810
3.700500	1.843129
3.701000	1.843129
3.701500	1.842492
3.702000	1.843129
3.702500	1.842810
3.703000	1.841855
3.703500	1.843766
3.704000	1.842492
3.704500	1.842810
3.705000	1.843129
3.705500	1.842173
3.706000	1.843766
3.706500	1.842492
3.707000	1.841855
3.707500	1.842810
3.708000	1.842810
3.708500	1.842810
3.709000	1.843129
3.709500	1.842810
3.710000	1.842173
3.710500	1.843766
3.711000	1.842810
3.711500	1.842173
3.712000	1.842492
3.712500	1.842492
3.713000	1.842810
3.713500	1.842492
3.714000	1.841537
3.714500	1.843129
3.715000	1.842492
3.715500	1.842810
3.716000	1.842492
3.716500	1.841855
3.717000	1.843447
3.717500	1.842492
3.718000	1.842173
3.718500	1.842810
3.719000	1.841855
3.719500	1.842492
3.720000	1.843447
3.720500	1.842173
3.721000	1.843129
3.721500	1.842810
3.722000	1.842492
3.722500	1.843129
3.723000	1.842810
3.723500	1.841855
3.724000	1.842810
3.724500	1.842492
3.725000	1.842810
3.725500	1.842492
3.726000	1.842492
3.726500	1.842810
3.727000	1.843129
3.727500	1.842810
3.728000	1.842810
3.728500	1.842492
3.729000	1.842492
3.729500	1.842492
3.730000	1.842492
3.730500	1.842810
3.731000	1.842810
3.731500	1.842810
3.732000	1.843766
3.732500	1.842492
3.733000	1.842492
3.733500	1.842810
3.734000	1.842492
3.734500	1.843129
3.735000	1.843447
3.735500	1.842492
3.736000	1.843447
3.736500	1.842810
3.737000	1.842492
3.737500	1.843129
3.738000	1.842173
3.738500	1.843129
3.739000	1.843129
3.739500	1.843129
3.740000	1.842810
3.740500	1.843129
3.741000	1.842810
3.741500	1.843766
3.742000	1.843129
3.742500	1.841855
3.743000	1.842810
3.743500	1.842173
3.744000	1.842810
3.744500	1.843129
3.745000	1.841855
3.745500	1.843129
3.746000	1.842810
3.746500	1.843129
3.747000	1.843766
3.747500	1.842492
3.748000	1.842492
3.748500	1.843766
3.749000	1.842810
3.749500	1.842492
3.750000	1.841537
3.750500	1.842173
3.751000	1.843447
3.751500	1.842173
3.752000	1.842492
3.752500	1.842492
3.753000	1.841855
3.753500	1.843129
3.754000	1.842810
3.754500	1.841855
3.755000	1.842810
3.755500	1.842492
3.756000	1.843129
3.756500	1.842810
3.757000	1.842810
3.757500	1.842492
3.758000	1.843129
3.758500	1.842810
3.759000	1.842492
3.759500	1.842492
3.760000	1.841855
3.760500	1.842492
3.761000	1.842492
3.761500	1.841855
3.762000	1.842492
3.762500	1.842492
3.763000	1.842492
3.763500	1.842492
3.764000	1.841855
3.764500	1.843129
3.765000	1.842810
3.765500	1.842810
3.766000	1.843129
3.766500	1.842810
3.767000	1.842173
3.767500	1.843447
3.768000	1.843447
3.768500	1.842492
3.769000	1.841855
3.769500	1.842492
3.770000	1.843766
3.770500	1.842492
3.771000	1.841855
3.771500	1.842492
3.772000	1.841855
3.772500	1.843129
3.773000	1.842492
3.773500	1.840900
3.774000	1.842810
3.774500	1.842492
3.775000	1.843129
3.775500	1.843129
3.776000	1.842492
3.776500	1.843766
3.777000	1.843129
3.777500	1.843129
3.778000	1.842810
3.778500	1.842173
3.779000	1.842810
3.779500	1.842810
3.780000	1.843447
3.780500	1.842492
3.781000	1.843129
3.781500	1.842492
3.782000	1.843766
3.782500	1.843766
3.783000	1.842492
3.783500	1.842810
3.784000	1.843447
3.784500	1.843447
3.785000	1.843766
3.785500	1.843129
3.786000	1.843766
3.786500	1.844721
3.787000	1.842810
3.787500	1.843129
3.788000	1.842810
3.788500	1.842810
3.789000	1.844403
3.789500	1.843766
3.790000	1.842810
3.790500	1.843766
3.791000	1.842492
3.791500	1.843766
3.792000	1.843766
3.792500	1.843129
3.793000	1.844084
3.793500	1.843766
3.794000	1.842492
3.794500	1.843447
3.795000	1.842492
3.795500	1.843766
3.796000	1.844084
3.796500	1.843766
3.797000	1.843766
3.797500	1.843766
3.798000	1.843447
3.798500	1.844084
3.799000	1.842810
3.799500	1.842492
3.800000	1.843447
3.800500	1.842810
3.801000	1.843766
3.801500	1.843447
3.802000	1.843766
3.802500	1.843129
3.803000	1.843766
3.803500	1.843766
3.804000	1.843766
3.804500	1.842810
3.805000	1.842810
3.805500	1.844721
3.806000	1.843129
3.806500	1.844084
3.807000	1.843447
3.807500	1.843766
3.808000	1.843766
3.808500	1.842810
3.809000	1.842492
3.809500	1.843766
3.810000	1.842810
3.810500	1.843766
3.811000	1.843766
3.811500	1.842810
3.812000	1.844084
3.812500	1.843766
3.813000	1.843129
3.813500	1.844084
3.814000	1.842810
3.814500	1.843766
3.815000	1.844403
3.815500	1.843766
3.816000	1.843766
3.816500	1.843129
3.817000	1.843766
3.817500	1.844403
3.818000	1.843129
3.818500	1.844084
3.819000	1.844084
3.819500	1.843447
3.820000	1.844403
3.820500	1.844084
3.821000	1.842810
3.821500	1.844084
3.822000	1.843766
3.822500	1.843766
3.823000	1.844084
3.823500	1.842810
3.824000	1.843447
3.824500	1.844084
3.825000	1.842810
3.825500	1.844403
3.826000	1.843129
3.826500	1.842492
3.827000	1.844721
3.827500	1.843447
3.828000	1.842492
3.828500	1.843129
3.829000	1.843129
3.829500	1.844403
3.830000	1.844084
3.830500	1.843447
3.831000	1.843766
3.831500	1.843766
3.832000	1.844403
3.832500	1.843129
3.833000	1.842810
3.833500	1.843447
3.834000	1.844084
3.834500	1.844084
3.835000	1.843766
3.835500	1.843129
3.836000	1.843766
3.836500	1.843766
3.837000	1.844084
3.837500	1.843129
3.838000	1.843766
3.838500	1.843129
3.839000	1.843129
3.839500	1.844084
3.840000	1.843129
3.840500	1.843766
3.841000	1.844084
3.841500	1.843766
3.842000	1.844084
3.842500	1.843129
3.843000	1.843766
3.843500	1.844403
3.844000	1.843447
3.844500	1.843129
3.845000	1.842810
3.845500	1.842810
3.846000	1.844403
3.846500	1.843129
3.847000	1.843447
3.847500	1.843447
3.848000	1.843129
3.848500	1.843129
3.849000	1.843766
3.849500	1.842810
3.850000	1.844403
3.850500	1.843447
3.851000	1.843766
3.851500	1.843766
3.852000	1.843447
3.852500	1.843766
3.853000	1.844721
3.853500	1.843766
3.854000	1.844403
3.854500	1.844403
3.855000	1.843766
3.855500	1.844721
3.856000	1.844403
3.856500	1.843129
3.857000	1.844084
3.857500	1.843766
3.858000	1.844403
3.858500	1.843766
3.859000	1.843129
3.859500	1.844084
3.860000	1.843766
3.860500	1.844084
3.861000	1.844403
3.861500	1.843766
3.862000	1.843129
3.862500	1.844403
3.863000	1.843447
3.863500	1.844084
3.864000	1.844084
3.864500	1.843447
3.865000	1.844403
3.865500	1.844403
3.866000	1.843129
3.866500	1.844084
3.867000	1.843766
3.867500	1.844403
3.868000	1.844084
3.868500	1.843447
3.869000	1.844403
3.869500	1.844403
3.870000	1.844084
3.870500	1.844721
3.871000	1.843766
3.871500	1.844084
3.872000	1.844721
3.872500	1.844403
3.873000	1.844403
3.873500	1.844084
3.874000	1.844084
3.874500	1.845040
3.875000	1.843447
3.875500	1.844084
3.876000	1.844084
3.876500	1.843766
3.877000	1.844721
3.877500	1.844721
3.878000	1.843129
3.878500	1.845040
3.879000	1.844084
3.879500	1.844403
3.880000	1.843766
3.880500	1.843766
3.881000	1.844721
3.881500	1.844403
3.882000	1.844084
3.882500	1.844403
3.883000	1.843766
3.883500	1.843766
3.884000	1.844403
3.884500	1.844084
3.885000	1.844084
3.885500	1.843766
3.886000	1.844084
3.886500	1.844721
3.887000	1.844403
3.887500	1.843129
3.888000	1.844403
3.888500	1.844084
3.889000	1.844721
3.889500	1.844721
3.890000	1.843766
3.890500	1.843766
3.891000	1.844721
3.891500	1.843766
3.892000	1.844084
3.892500	1.844084
3.893000	1.843766
3.893500	1.844403
3.894000	1.844721
3.894500	1.843766
3.895000	1.844084
3.895500	1.843766
3.896000	1.844721
3.896500	1.844084
3.897000	1.843766
3.897500	1.844084
3.898000	1.844084
3.898500	1.844403
3.899000	1.844084
3.899500	1.843766
3.900000	1.845040
3.900500	1.845040
3.901000	1.844084
3.901500	1.845040
3.902000	1.844721
3.902500	1.844721
3.903000	1.845358
3.903500	1.843766
3.904000	1.844084
3.904500	1.844084
3.905000	1.843766
3.905500	1.844721
3.906000	1.844403
3.906500	1.844084
3.907000	1.845358
3.907500	1.844084
3.908000	1.844403
3.908500	1.844403
3.909000	1.843766
3.909500	1.844721
3.910000	1.843766
3.910500	1.844084
3.911000	1.845040
3.911500	1.843766
3.912000	1.844084
3.912500	1.844721
3.913000	1.843766
3.913500	1.843766
3.914000	1.844403
3.914500	1.843766
3.915000	1.844084
3.915500	1.843766
3.916000	1.843766
3.916500	1.844403
3.917000	1.844403
3.917500	1.844403
3.918000	1.844084
3.918500	1.843766
3.919000	1.844721
3.919500	1.844721
3.920000	1.843447
3.920500	1.843447
3.921000	1.843447
3.921500	1.843129
3.922000	1.844721
3.922500	1.843766
3.923000	1.843129
3.923500	1.843766
3.924000	1.843129
3.924500	1.844403
3.925000	1.844084
3.925500	1.842492
3.926000	1.843766
3.926500	1.843129
3.927000	1.844084
3.927500	1.844084
3.928000	1.843129
3.928500	1.843129
3.929000	1.844084
3.929500	1.843129
3.930000	1.843766
3.930500	1.842492
3.931000	1.842810
3.931500	1.844403
3.932000	1.843766
3.932500	1.843766
3.933000	1.843129
3.933500	1.842492
3.934000	1.844084
3.934500	1.842810
3.935000	1.842173
3.935500	1.844084
3.936000	1.843129
3.936500	1.843766
3.937000	1.843129
3.937500	1.843447
3.938000	1.843766
3.938500	1.843129
3.939000	1.843129
3.939500	1.843447
3.940000	1.842492
3.940500	1.842810
3.941000	1.843766
3.941500	1.842810
3.942000	1.842810
3.942500	1.843129
3.943000	1.843129
3.943500	1.843766
3.944000	1.843129
3.944500	1.842810
3.945000	1.843447
3.945500	1.843129
3.946000	1.843129
3.946500	1.843766
3.947000	1.842492
3.947500	1.842492
3.948000	1.843766
3.948500	1.842810
3.949000	1.843766
3.949500	1.843129
3.950000	1.842492
3.950500	1.844084
3.951000	1.843129
3.951500	1.843447
3.952000	1.842810
3.952500	1.841855
3.953000	1.842810
3.953500	1.842810
3.954000	1.842173
3.954500	1.842492
3.955000	1.842492
3.955500	1.843129
3.956000	1.843129
3.956500	1.842173
3.957000	1.842810
3.957500	1.843129
3.958000	1.842810
3.958500	1.843129
3.959000	1.842810
3.959500	1.843129
3.960000	1.843447
3.960500	1.843129
3.961000	1.843766
3.961500	1.843129
3.962000	1.842173
3.962500	1.843766
3.963000	1.842810
3.963500	1.842492
3.964000	1.842810
3.964500	1.842173
3.965000	1.843129
3.965500	1.842810
3.966000	1.842810
3.966500	1.843129
3.967000	1.843447
3.967500	1.842492
3.968000	1.843447
3.968500	1.842173
3.969000	1.842492
3.969500	1.843447
3.970000	1.842492
3.970500	1.842173
3.971000	1.843129
3.971500	1.842810
3.972000	1.843447
3.972500	1.842810
3.973000	1.841855
3.973500	1.843766
3.974000	1.842173
3.974500	1.842810
3.975000	1.843129
3.975500	1.841855
3.976000	1.843129
3.976500	1.843129
3.977000	1.842492
3.977500	1.843766
3.978000	1.842810
3.978500	1.842492
3.979000	1.842810
3.979500	1.842810
3.980000	1.843129
3.980500	1.843129
3.981000	1.841855
3.981500	1.843129
3.982000	1.842492
3.982500	1.841855
3.983000	1.842492
3.983500	1.842492
3.984000	1.843129
3.984500	1.842492
3.985000	1.842492
3.985500	1.843447
3.986000	1.842810
3.986500	1.842810
3.987000	1.843129
3.987500	1.842492
3.988000	1.843766
3.988500	1.843766
3.989000	1.842810
3.989500	1.842492
3.990000	1.842492
3.990500	1.842810
3.991000	1.843129
3.991500	1.843129
3.992000	1.842492
3.992500	1.843447
3.993000	1.842173
3.993500	1.842492
3.994000	1.842810
3.994500	1.842173
3.995000	1.843766
3.995500	1.842492
3.996000	1.843129
3.996500	1.843129
3.997000	1.842492
3.997500	1.842810
3.998000	1.843447
3.998500	1.842492
3.999000	1.842492
3.999500	1.842810
4.000000	1.842492
4.000500	1.843129
4.001000	1.842173
4.001500	1.842492
4.002000	1.843129
4.002500	1.842810
4.003000	1.842810
4.003500	1.842492
4.004000	1.841855
4.004500	1.843766
4.005000	1.842173
4.005500	1.842810
4.006000	1.843447
4.006500	1.842492
4.007000	1.842810
4.007500	1.843766
4.008000	1.842492
4.008500	1.843129
4.009000	1.843129
4.009500	1.842810
4.010000	1.842810
4.010500	1.842173
4.011000	1.842492
4.011500	1.842492
4.012000	1.841855
4.012500	1.843447
4.013000	1.842173
4.013500	1.842173
4.014000	1.842810
4.014500	1.842492
4.015000	1.843129
4.015500	1.842492
4.016000	1.842173
4.016500	1.842810
4.017000	1.843447
4.017500	1.843129
4.018000	1.843766
4.018500	1.841855
4.019000	1.843129
4.019500	1.844084
4.020000	1.842492
4.020500	1.842492
4.021000	1.841855
4.021500	1.842173
4.022000	1.842810
4.022500	1.842492
4.023000	1.842173
4.023500	1.843129
4.024000	1.842810
4.024500	1.842492
4.025000	1.842810
4.025500	1.842492
4.026000	1.842810
4.026500	1.843447
4.027000	1.842810
4.027500	1.843129
4.028000	1.842173
4.028500	1.843129
4.029000	1.844084
4.029500	1.841855
4.030000	1.842492
4.030500	1.842492
4.031000	1.842810
4.031500	1.843129
4.032000	1.843129
4.032500	1.842810
4.033000	1.843447
4.033500	1.842810
4.034000	1.843129
4.034500	1.844084
4.035000	1.842492
4.035500	1.843129
4.036000	1.844084
4.036500	1.842810
4.037000	1.843766
4.037500	1.842810
4.038000	1.843129
4.038500	1.843129
4.039000	1.842492
4.039500	1.843129
4.040000	1.843766
4.040500	1.841855
4.041000	1.843129
4.041500	1.842810
4.042000	1.842810
4.042500	1.842810
4.043000	1.843129
4.043500	1.842492
4.044000	1.843766
4.044500	1.841855
4.045000	1.842173
4.045500	1.842492
4.046000	1.842173
4.046500	1.842810
4.047000	1.842173
4.047500	1.843129
4.048000	1.843129
4.048500	1.842492
4.049000	1.842492
4.049500	1.842492
4.050000	1.842810
4.050500	1.843766
4.051000	1.842810
4.051500	1.842173
4.052000	1.843129
4.052500	1.842492
4.053000	1.843447
4.053500	1.843129
4.054000	1.842492
4.054500	1.842810
4.055000	1.842492
4.055500	1.843129
4.056000	1.842810
4.056500	1.842492
4.057000	1.842492
4.057500	1.843129
4.058000	1.842492
4.058500	1.842492
4.059000	1.842492
4.059500	1.842173
4.060000	1.843766
4.060500	1.843129
4.061000	1.842492
4.061500	1.843129
4.062000	1.841855
4.062500	1.843129
4.063000	1.843447
4.063500	1.841537
4.064000	1.842810
4.064500	1.842492
4.065000	1.842492
4.065500	1.843129
4.066000	1.841855
4.066500	1.842810
4.067000	1.843129
4.067500	1.842173
4.068000	1.842173
4.068500	1.842492
4.069000	1.842492
4.069500	1.843766
4.070000	1.842492
4.070500	1.843129
4.071000	1.842492
4.071500	1.842492
4.072000	1.842810
4.072500	1.842492
4.073000	1.842492
4.073500	1.842492
4.074000	1.842810
4.074500	1.843129
4.075000	1.841855
4.075500	1.841855
4.076000	1.842810
4.076500	1.843129
4.077000	1.842492
4.077500	1.843129
4.078000	1.842492
4.078500	1.842492
4.079000	1.843129
4.079500	1.841855
4.080000	1.843129
4.080500	1.842492
4.081000	1.842173
4.081500	1.843129
4.082000	1.842492
4.082500	1.841537
4.083000	1.842810
4.083500	1.842492
4.084000	1.842810
4.084500	1.843129
4.085000	1.841855
4.085500	1.843129
4.086000	1.843129
4.086500	1.841855
4.087000	1.843447
4.087500	1.842173
4.088000	1.842492
4.088500	1.842492
4.089000	1.842173
4.089500	1.843766
4.090000	1.842810
4.090500	1.843129
4.091000	1.843447
4.091500	1.842492
4.092000	1.841855
4.092500	1.843766
4.093000	1.842173
4.093500	1.842810
4.094000	1.843129
4.094500	1.841855
4.095000	1.842810
4.095500	1.843447
4.096000	1.843129
4.096500	1.842810
4.097000	1.841855
4.097500	1.842810
4.098000	1.842492
4.098500	1.842810
4.099000	1.842810
4.099500	1.843129
4.100000	1.842492
4.100500	1.843447
4.101000	1.842810
4.101500	1.842173
4.102000	1.842492
4.102500	1.842492
4.103000	1.841855
4.103500	1.843766
4.104000	1.842492
4.104500	1.842810
4.105000	1.843129
4.105500	1.842173
4.106000	1.842810
4.106500	1.842492
4.107000	1.842810
4.107500	1.843766
4.108000	1.842810
4.108500	1.842492
4.109000	1.842810
4.109500	1.843129
4.110000	1.843766
4.110500	1.843129
4.111000	1.842173
4.111500	1.843129
4.112000	1.842810
4.112500	1.843129
4.113000	1.844084
4.113500	1.842810
4.114000	1.843129
4.114500	1.843129
4.115000	1.843447
4.115500	1.843766
4.116000	1.842810
4.116500	1.843129
4.117000	1.843447
4.117500	1.842810
4.118000	1.843447
4.118500	1.842810
4.119000	1.843129
4.119500	1.842810
4.120000	1.842810
4.120500	1.842492
4.121000	1.843766
4.121500	1.842492
4.122000	1.843766
4.122500	1.842492
4.123000	1.842492
4.123500	1.843129
4.124000	1.843447
4.124500	1.843129
4.125000	1.843766
4.125500	1.843129
4.126000	1.843447
4.126500	1.844403
4.127000	1.843447
4.127500	1.843766
4.128000	1.843766
4.128500	1.843447
4.129000	1.843447
4.129500	1.843766
4.130000	1.842810
4.130500	1.843129
4.131000	1.842810
4.131500	1.843766
4.132000	1.843766
4.132500	1.843129
4.133000	1.843447
4.133500	1.844084
4.134000	1.843447
4.134500	1.843766
4.135000	1.843129
4.135500	1.843129
4.136000	1.844084
4.136500	1.843766
4.137000	1.843129
4.137500	1.843766
4.138000	1.842810
4.138500	1.843766
4.139000	1.843447
4.139500	1.843766
4.140000	1.844084
4.140500	1.843447
4.141000	1.843766
4.141500	1.843766
4.142000	1.843129
4.142500	1.844084
4.143000	1.843447
4.143500	1.844084
4.144000	1.843766
4.144500	1.843447
4.145000	1.843766
4.145500	1.844721
4.146000	1.843129
4.146500	1.843447
4.147000	1.843129
4.147500	1.843447
4.148000	1.844403
4.148500	1.843766
4.149000	1.843129
4.149500	1.842810
4.150000	1.843129
4.150500	1.844084
4.151000	1.843447
4.151500	1.843129
4.152000	1.843766
4.152500	1.844084
4.153000	1.843766
4.153500	1.844403
4.154000	1.843447
4.154500	1.843766
4.155000	1.844721
4.155500	1.842810
4.156000	1.843447
4.156500	1.844721
4.157000	1.843766
4.157500	1.843447
4.158000	1.844084
4.158500	1.843129
4.159000	1.843766
4.159500	1.843766
4.160000	1.843766
4.160500	1.844084
4.161000	1.843129
4.161500	1.844084
4.162000	1.844403
4.162500	1.844084
4.163000	1.843766
4.163500	1.843447
4.164000	1.844084
4.164500	1.844721
4.165000	1.843766
4.165500	1.843129
4.166000	1.844084
4.166500	1.843447
4.167000	1.844084
4.167500	1.843766
4.168000	1.842492
4.168500	1.843766
4.169000	1.843766
4.169500	1.843766
4.170000	1.843766
4.170500	1.843129
4.171000	1.843766
4.171500	1.845040
4.172000	1.844084
4.172500	1.844084
4.173000	1.843766
4.173500	1.843129
4.174000	1.844084
4.174500	1.843766
4.175000	1.843766
4.175500	1.844084
4.176000	1.843447
4.176500	1.844084
4.177000	1.843447
4.177500	1.842810
4.178000	1.843766
4.178500	1.843129
4.179000	1.843766
4.179500	1.844403
4.180000	1.842810
4.180500	1.843447
4.181000	1.844084
4.181500	1.843766
4.182000	1.843129
4.182500	1.843766
4.183000	1.843129
4.183500	1.843766
4.184000	1.843447
4.184500	1.842492
4.185000	1.843766
4.185500	1.843766
4.186000	1.843129
4.186500	1.843766
4.187000	1.842810
4.187500	1.843129
4.188000	1.843766
4.188500	1.843766
4.189000	1.843766
4.189500	1.842810
4.190000	1.843766
4.190500	1.844084
4.191000	1.843129
4.191500	1.843447
4.192000	1.842810
4.192500	1.842810
4.193000	1.843766
4.193500	1.843129
4.194000	1.842492
4.194500	1.843447
4.195000	1.842492
4.195500	1.843129
4.196000	1.844084
4.196500	1.843129
4.197000	1.843766
4.197500	1.843447
4.198000	1.842810
4.198500	1.843766
4.199000	1.842810
4.199500	1.843129
4.200000	1.843766
4.200500	1.843766
4.201000	1.843766
4.201500	1.843129
4.202000	1.843766
4.202500	1.843766
4.203000	1.842810
4.203500	1.842810
4.204000	1.844084
4.204500	1.842810
4.205000	1.843766
4.205500	1.843129
4.206000	1.843129
4.206500	1.844084
4.207000	1.843766
4.207500	1.843766
4.208000	1.845040
4.208500	1.844084
4.209000	1.843766
4.209500	1.844403
4.210000	1.843766
4.210500	1.844084
4.211000	1.844084
4.211500	1.842810
4.212000	1.844084
4.212500	1.843766
4.213000	1.844084
4.213500	1.843129
4.214000	1.843766
4.214500	1.843766
4.215000	1.843766
4.215500	1.843766
4.216000	1.844721
4.216500	1.844084
4.217000	1.843447
4.217500	1.844403
4.218000	1.843447
4.218500	1.843129
4.219000	1.844084
4.219500	1.843447
4.220000	1.843129
4.220500	1.844084
4.221000	1.843129
4.221500	1.844084
4.222000	1.843766
4.222500	1.843129
4.223000	1.843129
4.223500	1.843766
4.224000	1.844084
4.224500	1.843766
4.225000	1.842492
4.225500	1.843766
4.226000	1.844721
4.226500	1.843129
4.227000	1.843129
4.227500	1.843766
4.228000	1.843447
4.228500	1.844403
4.229000	1.843447
4.229500	1.842810
4.230000	1.843766
4.230500	1.842492
4.231000	1.843766
4.231500	1.843766
4.232000	1.843766
4.232500	1.843447
4.233000	1.843766
4.233500	1.843129
4.234000	1.844084
4.234500	1.843447
4.235000	1.843447
4.235500	1.845040
4.236000	1.844403
4.236500	1.843766
4.237000	1.844084
4.237500	1.843766
4.238000	1.844403
4.238500	1.843766
4.239000	1.842173
4.239500	1.844403
4.240000	1.844084
4.240500	1.843766
4.241000	1.844084
4.241500	1.843129
4.242000	1.844084
4.242500	1.843766
4.243000	1.843129
4.243500	1.843766
4.244000	1.843447
4.244500	1.844084
4.245000	1.844403
4.245500	1.843447
4.246000	1.843766
4.246500	1.843766
4.247000	1.843766
4.247500	1.843447
4.248000	1.844084
4.248500	1.843447
4.249000	1.844084
4.249500	1.844084
4.250000	1.844084
4.250500	1.843766
4.251000	1.843129
4.251500	1.843766
4.252000	1.844084
4.252500	1.843129
4.253000	1.844084
4.253500	1.843766
4.254000	1.844084
4.254500	1.844403
4.255000	1.844084
4.255500	1.842810
4.256000	1.843766
4.256500	1.843766
4.257000	1.843766
4.257500	1.844403
4.258000	1.843447
4.258500	1.843766
4.259000	1.844403
4.259500	1.844084
4.260000	1.844084
4.260500	1.843766
4.261000	1.844084
4.261500	1.844403
4.262000	1.844084
4.262500	1.843447
4.263000	1.844403
4.263500	1.843766
4.264000	1.845040
4.264500	1.844403
4.265000	1.843447
4.265500	1.843447
4.266000	1.844403
4.266500	1.844084
4.267000	1.843766
4.267500	1.843766
4.268000	1.844084
4.268500	1.844721
4.269000	1.843447
4.269500	1.844721
4.270000	1.843766
4.270500	1.844403
4.271000	1.844721
4.271500	1.843766
4.272000	1.844084
4.272500	1.844403
4.273000	1.844084
4.273500	1.843766
4.274000	1.844084
4.274500	1.843129
4.275000	1.845040
4.275500	1.844403
4.276000	1.844084
4.276500	1.844403
4.277000	1.843447
4.277500	1.844403
4.278000	1.844721
4.278500	1.844084
4.279000	1.844403
4.279500	1.843766
4.280000	1.844403
4.280500	1.844403
4.281000	1.843766
4.281500	1.844084
4.282000	1.843766
4.282500	1.843766
4.283000	1.844721
4.283500	1.844084
4.284000	1.844084
4.284500	1.844721
4.285000	1.844403
4.285500	1.844084
4.286000	1.844721
4.286500	1.844084
4.287000	1.844403
4.287500	1.844721
4.288000	1.843447
4.288500	1.843766
4.289000	1.843766
4.289500	1.844721
4.290000	1.845040
4.290500	1.844084
4.291000	1.844403
4.291500	1.844084
4.292000	1.844084
4.292500	1.844721
4.293000	1.844721
4.293500	1.843447
4.294000	1.844084
4.294500	1.844084
4.295000	1.844403
4.295500	1.844721
4.296000	1.843766
4.296500	1.844084
4.297000	1.845040
4.297500	1.844721
4.298000	1.844721
4.298500	1.844721
4.299000	1.843766
4.299500	1.844721
4.300000	1.843766
4.300500	1.844084
4.301000	1.844084
4.301500	1.844084
4.302000	1.844084
4.302500	1.843766
4.303000	1.843447
4.303500	1.843129
4.304000	1.844721
4.304500	1.844084
4.305000	1.844721
4.305500	1.843766
4.306000	1.843766
4.306500	1.844721
4.307000	1.843129
4.307500	1.843447
4.308000	1.842810
4.308500	1.843129
4.309000	1.845040
4.309500	1.843766
4.310000	1.843766
4.310500	1.843766
4.311000	1.842810
4.311500	1.843129
4.312000	1.844403
4.312500	1.843129
4.313000	1.843129
4.313500	1.843766
4.314000	1.842810
4.314500	1.843766
4.315000	1.842810
4.315500	1.843447
4.316000	1.844403
4.316500	1.843129
4.317000	1.844084
4.317500	1.843766
4.318000	1.844084
4.318500	1.843766
4.319000	1.842810
4.319500	1.842492
4.320000	1.843766
4.320500	1.843447
4.321000	1.844084
4.321500	1.843766
4.322000	1.842810
4.322500	1.843447
4.323000	1.843766
4.323500	1.843129
4.324000	1.843129
4.324500	1.843129
4.325000	1.843129
4.325500	1.844084
4.326000	1.842492
4.326500	1.842810
4.327000	1.843766
4.327500	1.842810
4.328000	1.843766
4.328500	1.843447
4.329000	1.841855
4.329500	1.843766
4.330000	1.842810
4.330500	1.843447
4.331000	1.843766
4.331500	1.842492
4.332000	1.843129
4.332500	1.844084
4.333000	1.843129
4.333500	1.843766
4.334000	1.842810
4.334500	1.843447
4.335000	1.844084
4.335500	1.843447
4.336000	1.843129
4.336500	1.843766
4.337000	1.842173
4.337500	1.844084
4.338000	1.842810
4.338500	1.842492
4.339000	1.843129
4.339500	1.842810
4.340000	1.842810
4.340500	1.843129
4.341000	1.842810
4.341500	1.843129
4.342000	1.844084
4.342500	1.842810
4.343000	1.844084
4.343500	1.843766
4.344000	1.843766
4.344500	1.844084
4.345000	1.843766
4.345500	1.843129
4.346000	1.843766
4.346500	1.843447
4.347000	1.843766
4.347500	1.843129
4.348000	1.843447
4.348500	1.843766
4.349000	1.844084
4.349500	1.843766
4.350000	1.844084
4.350500	1.842492
4.351000	1.843129
4.351500	1.844721
4.352000	1.843129
4.352500	1.843766
4.353000	1.843766
4.353500	1.843766
4.354000	1.844084
4.354500	1.842492
4.355000	1.843447
4.355500	1.843766
4.356000	1.843129
4.356500	1.843447
4.357000	1.843129
4.357500	1.842810
4.358000	1.843766
4.358500	1.843129
4.359000	1.843766
4.359500	1.843766
4.360000	1.842492
4.360500	1.843766
4.361000	1.844084
4.361500	1.843129
4.362000	1.844084
4.362500	1.843129
4.363000	1.843129
4.363500	1.844403
4.364000	1.843129
4.364500	1.843766
4.365000	1.843766
4.365500	1.842810
4.366000	1.844403
4.366500	1.844084
4.367000	1.843129
4.367500	1.843766
4.368000	1.843129
4.368500	1.843766
4.369000	1.843129
4.369500	1.842810
4.370000	1.843766
4.370500	1.844084
4.371000	1.844084
4.371500	1.844084
4.372000	1.843766
4.372500	1.843129
4.373000	1.844403
4.373500	1.842492
4.374000	1.843766
4.374500	1.843766
4.375000	1.843129
4.375500	1.844721
4.376000	1.844084
4.376500	1.842810
4.377000	1.843766
4.377500	1.843766
4.378000	1.844084
4.378500	1.843447
4.379000	1.843129
4.379500	1.843766
4.380000	1.843766
4.380500	1.843129
4.381000	1.844403
4.381500	1.843129
4.382000	1.844084
4.382500	1.844721
4.383000	1.844403
4.383500	1.844403
4.384000	1.843766
4.384500	1.843447
4.385000	1.844084
4.385500	1.843766
4.386000	1.842492
4.386500	1.844084
4.387000	1.843447
4.387500	1.844084
4.388000	1.843766
4.388500	1.842810
4.389000	1.843766
4.389500	1.843766
4.390000	1.843129
4.390500	1.843129
4.391000	1.842810
4.391500	1.843766
4.392000	1.844721
4.392500	1.843447
4.393000	1.843766
4.393500	1.843766
4.394000	1.842810
4.394500	1.844084
4.395000	1.843129
4.395500	1.843129
4.396000	1.843129
4.396500	1.843447
4.397000	1.843766
4.397500	1.843129
4.398000	1.842492
4.398500	1.843766
4.399000	1.843447
4.399500	1.843766
4.400000	1.843766
4.400500	1.843129
4.401000	1.843766
4.401500	1.843766
4.402000	1.842810
4.402500	1.843766
4.403000	1.843447
4.403500	1.842492
4.404000	1.843129
4.404500	1.843129
4.405000	1.842492
4.405500	1.843766
4.406000	1.843766
4.406500	1.844084
4.407000	1.843766
4.407500	1.842492
4.408000	1.842810
4.408500	1.844084
4.409000	1.843447
4.409500	1.843766
4.410000	1.843129
4.410500	1.842492
4.411000	1.843766
4.411500	1.843447
4.412000	1.844721
4.412500	1.843766
4.413000	1.842810
4.413500	1.844721
4.414000	1.843766
4.414500	1.843129
4.415000	1.843766
4.415500	1.843447
4.416000	1.844403
4.416500	1.843447
4.417000	1.842492
4.417500	1.843766
4.418000	1.843766
4.418500	1.842810
4.419000	1.843766
4.419500	1.842810
4.420000	1.843766
4.420500	1.844084
4.421000	1.843129
4.421500	1.844084
4.422000	1.843766
4.422500	1.843766
4.423000	1.844084
4.423500	1.843129
4.424000	1.843129
4.424500	1.843766
4.425000	1.843129
4.425500	1.844403
4.426000	1.844084
4.426500	1.842810
4.427000	1.844084
4.427500	1.843766
4.428000	1.843129
4.428500	1.843447
4.429000	1.842492
4.429500	1.842810
4.430000	1.843766
4.430500	1.843129
4.431000	1.843129
4.431500	1.842810
4.432000	1.843447
4.432500	1.843766
4.433000	1.842810
4.433500	1.842810
4.434000	1.844084
4.434500	1.842810
4.435000	1.843447
4.435500	1.843766
4.436000	1.842810
4.436500	1.843129
4.437000	1.843447
4.437500	1.842492
4.438000	1.843766
4.438500	1.842810
4.439000	1.842810
4.439500	1.844084
4.440000	1.842810
4.440500	1.842810
4.441000	1.842810
4.441500	1.842492
4.442000	1.844084
4.442500	1.843766
4.443000	1.842492
4.443500	1.842810
4.444000	1.842810
4.444500	1.842492
4.445000	1.843766
4.445500	1.841537
4.446000	1.842810
4.446500	1.842810
4.447000	1.842810
4.447500	1.843447
4.448000	1.842173
4.448500	1.843129
4.449000	1.844403
4.449500	1.843129
4.450000	1.843766
4.450500	1.843766
4.451000	1.842810
4.451500	1.843447
4.452000	1.842492
4.452500	1.842810
4.453000	1.842492
4.453500	1.842492
4.454000	1.843447
4.454500	1.843766
4.455000	1.842492
4.455500	1.843129
4.456000	1.843766
4.456500	1.842810
4.457000	1.843129
4.457500	1.842492
4.458000	1.842492
4.458500	1.843447
4.459000	1.842810
4.459500	1.842492
4.460000	1.842492
4.460500	1.842810
4.461000	1.843447
4.461500	1.842492
4.462000	1.842492
4.462500	1.843447
4.463000	1.843447
4.463500	1.843129
4.464000	1.843129
4.464500	1.842173
4.465000	1.843129
4.465500	1.842810
4.466000	1.842810
4.466500	1.843129
4.467000	1.842810
4.467500	1.842492
4.468000	1.844403
4.468500	1.842492
4.469000	1.843129
4.469500	1.842492
4.470000	1.842492
4.470500	1.843129
4.471000	1.842810
4.471500	1.842492
4.472000	1.843447
4.472500	1.842173
4.473000	1.842810
4.473500	1.843447
4.474000	1.842173
4.474500	1.843766
4.475000	1.843129
4.475500	1.843129
4.476000	1.843129
4.476500	1.843766
4.477000	1.843129
4.477500	1.843766
4.478000	1.842492
4.478500	1.842173
4.479000	1.843129
4.479500	1.842492
4.480000	1.843129
4.480500	1.842810
4.481000	1.842492
4.481500	1.843129
4.482000	1.842810
4.482500	1.842492
4.483000	1.843447
4.483500	1.841855
4.484000	1.843129
4.484500	1.844084
4.485000	1.842810
4.485500	1.843766
4.486000	1.842810
4.486500	1.842810
4.487000	1.844084
4.487500	1.843129
4.488000	1.842492
4.488500	1.843766
4.489000	1.842810
4.489500	1.844403
4.490000	1.844084
4.490500	1.842810
4.491000	1.843447
4.491500	1.843129
4.492000	1.842492
4.492500	1.843766
4.493000	1.842492
4.493500	1.843447
4.494000	1.843766
4.494500	1.843766
4.495000	1.843766
4.495500	1.842810
4.496000	1.843129
4.496500	1.844084
4.497000	1.842810
4.497500	1.843129
4.498000	1.843766
4.498500	1.842810
4.499000	1.844403
4.499500	1.843766
4.500000	1.842492
4.500500	1.844403
4.501000	1.843766
4.501500	1.843766
4.502000	1.843766
4.502500	1.842810
4.503000	1.843766
4.503500	1.844403
4.504000	1.844084
4.504500	1.843766
4.505000	1.843129
4.505500	1.844084
4.506000	1.844403
4.506500	1.843766
4.507000	1.843766
4.507500	1.844403
4.508000	1.843766
4.508500	1.843447
4.509000	1.844084
4.509500	1.843447
4.510000	1.844084
4.510500	1.844084
4.511000	1.844084
4.511500	1.844403
4.512000	1.843447
4.512500	1.843766
4.513000	1.844084
4.513500	1.843129
4.514000	1.843766
4.514500	1.843766
4.515000	1.843447
4.515500	1.844403
4.516000	1.844084
4.516500	1.843447
4.517000	1.844084
4.517500	1.843766
4.518000	1.844084
4.518500	1.844084
4.519000	1.842810
4.519500	1.843766
4.520000	1.844084
4.520500	1.844084
4.521000	1.843766
4.521500	1.843766
4.522000	1.844084
4.522500	1.844403
4.523000	1.843129
4.523500	1.844084
4.524000	1.843766
4.524500	1.842810
4.525000	1.844084
4.525500	1.842810
4.526000	1.842810
4.526500	1.842810
4.527000	1.842810
4.527500	1.842810
4.528000	1.843766
4.528500	1.841855
4.529000	1.843766
4.529500	1.843129
4.530000	1.843766
4.530500	1.844403
4.531000	1.842492
4.531500	1.843447
4.532000	1.843766
4.532500	1.842810
4.533000	1.843447
4.533500	1.842492
4.534000	1.843447
4.534500	1.843447
4.535000	1.842810
4.535500	1.842492
4.536000	1.843129
4.536500	1.842492
4.537000	1.843766
4.537500	1.843447
4.538000	1.841855
4.538500	1.843447
4.539000	1.842492
4.539500	1.843447
4.540000	1.842810
4.540500	1.842810
4.541000	1.843129
4.541500	1.843766
4.542000	1.842810
4.542500	1.843766
4.543000	1.842492
4.543500	1.842492
4.544000	1.843766
4.544500	1.842810
4.545000	1.842492
4.545500	1.842810
4.546000	1.842492
4.546500	1.842810
4.547000	1.843447
4.547500	1.841855
4.548000	1.842810
4.548500	1.842492
4.549000	1.842810
4.549500	1.843129
4.550000	1.841855
4.550500	1.842810
4.551000	1.842492
4.551500	1.842173
4.552000	1.844084
4.552500	1.841855
4.553000	1.842492
4.553500	1.843129
4.554000	1.843129
4.554500	1.842492
4.555000	1.842810
4.555500	1.842173
4.556000	1.843129
4.556500	1.842810
4.557000	1.842173
4.557500	1.843129
4.558000	1.843129
4.558500	1.843447
4.559000	1.843447
4.559500	1.842492
4.560000	1.842492
4.560500	1.842810
4.561000	1.842492
4.561500	1.843129
4.562000	1.843447
4.562500	1.842810
4.563000	1.843766
4.563500	1.843129
4.564000	1.842492
4.564500	1.843129
4.565000	1.842173
4.565500	1.843447
4.566000	1.842492
4.566500	1.842810
4.567000	1.843447
4.567500	1.842810
4.568000	1.842492
4.568500	1.843766
4.569000	1.842492
4.569500	1.843447
4.570000	1.844084
4.570500	1.842173
4.571000	1.843129
4.571500	1.841855
4.572000	1.842492
4.572500	1.843447
4.573000	1.842173
4.573500	1.842492
4.574000	1.842492
4.574500	1.842173
4.575000	1.843447
4.575500	1.843129
4.576000	1.842492
4.576500	1.843129
4.577000	1.843129
4.577500	1.843447
4.578000	1.842492
4.578500	1.843129
4.579000	1.842810
4.579500	1.844084
4.580000	1.843766
4.580500	1.842810
4.581000	1.842492
4.581500	1.841855
4.582000	1.843766
4.582500	1.842810
4.583000	1.842810
4.583500	1.842810
4.584000	1.842810
4.584500	1.842810
4.585000	1.843129
4.585500	1.842810
4.586000	1.843129
4.586500	1.842810
4.587000	1.843129
4.587500	1.843766
4.588000	1.842492
4.588500	1.843129
4.589000	1.843766
4.589500	1.842492
4.590000	1.843766
4.590500	1.843129
4.591000	1.843129
4.591500	1.843766
4.592000	1.843129
4.592500	1.843129
4.593000	1.843447
4.593500	1.842810
4.594000	1.843766
4.594500	1.844084
4.595000	1.842492
4.595500	1.842810
4.596000	1.842492
4.596500	1.843129
4.597000	1.843766
4.597500	1.843766
4.598000	1.843766
4.598500	1.843766
4.599000	1.843129
4.599500	1.844084
4.600000	1.842173
4.600500	1.842810
4.601000	1.843766
4.601500	1.842173
4.602000	1.842810
4.602500	1.843447
4.603000	1.842810
4.603500	1.843129
4.604000	1.843766
4.604500	1.842810
4.605000	1.843766
4.605500	1.842810
4.606000	1.843129
4.606500	1.843766
4.607000	1.842492
4.607500	1.843447
4.608000	1.844084
4.608500	1.843129
4.609000	1.842492
4.609500	1.842492
4.610000	1.842173
4.610500	1.843766
4.611000	1.842810
4.611500	1.842173
4.612000	1.843129
4.612500	1.842492
4.613000	1.843129
4.613500	1.843129
4.614000	1.841537
4.614500	1.843129
4.615000	1.843447
4.615500	1.842492
4.616000	1.843129
4.616500	1.842173
4.617000	1.843129
4.617500	1.843129
4.618000	1.842810
4.618500	1.843447
4.619000	1.842810
4.619500	1.842810
4.620000	1.843766
4.620500	1.843129
4.621000	1.842810
4.621500	1.843766
4.622000	1.842492
4.622500	1.843129
4.623000	1.842810
4.623500	1.841855
4.624000	1.843129
4.624500	1.843766
4.625000	1.843129
4.625500	1.843129
4.626000	1.842173
4.626500	1.842810
4.627000	1.844084
4.627500	1.842173
4.628000	1.842492
4.628500	1.842492
4.629000	1.842810
4.629500	1.843447
4.630000	1.842810
4.630500	1.843129
4.631000	1.843447
4.631500	1.843129
4.632000	1.843129
4.632500	1.844084
4.633000	1.842810
4.633500	1.843766
4.634000	1.843766
4.634500	1.843129
4.635000	1.843129
4.635500	1.843129
4.636000	1.843766
4.636500	1.843766
4.637000	1.843129
4.637500	1.843447
4.638000	1.843766
4.638500	1.843129
4.639000	1.843766
4.639500	1.843129
4.640000	1.842492
4.640500	1.843766
4.641000	1.842492
4.641500	1.843766
4.642000	1.843766
4.642500	1.842810
4.643000	1.843129
4.643500	1.843766
4.644000	1.843447
4.644500	1.843129
4.645000	1.843129
4.645500	1.843766
4.646000	1.844084
4.646500	1.843129
4.647000	1.843766
4.647500	1.843447
4.648000	1.842492
4.648500	1.843766
4.649000	1.843129
4.649500	1.842492
4.650000	1.843447
4.650500	1.843129
4.651000	1.843447
4.651500	1.843447
4.652000	1.842810
4.652500	1.843129
4.653000	1.843766
4.653500	1.843766
4.654000	1.843447
4.654500	1.842810
4.655000	1.843447
4.655500	1.843447
4.656000	1.843447
4.656500	1.843129
4.657000	1.843129
4.657500	1.842810
4.658000	1.843129
4.658500	1.842810
4.659000	1.843129
4.659500	1.843766
4.660000	1.843447
4.660500	1.843129
4.661000	1.843766
4.661500	1.842810
4.662000	1.843766
4.662500	1.844721
4.663000	1.843129
4.663500	1.844084
4.664000	1.844084
4.664500	1.843766
4.665000	1.844084
4.665500	1.843766
4.666000	1.843766
4.666500	1.843766
4.667000	1.843129
4.667500	1.844084
4.668000	1.843766
4.668500	1.842492
4.669000	1.844084
4.669500	1.843766
4.670000	1.844084
4.670500	1.844084
4.671000	1.843129
4.671500	1.844403
4.672000	1.844403
4.672500	1.843129
4.673000	1.844084
4.673500	1.843766
4.674000	1.843766
4.674500	1.844403
4.675000	1.843447
4.675500	1.843766
4.676000	1.844084
4.676500	1.843766
4.677000	1.845040
4.677500	1.844084
4.678000	1.843766
4.678500	1.843766
4.679000	1.843766
4.679500	1.844084
4.680000	1.843766
4.680500	1.843447
4.681000	1.843129
4.681500	1.843766
4.682000	1.843447
4.682500	1.844084
4.683000	1.843129
4.683500	1.843447
4.684000	1.844721
4.684500	1.844084
4.685000	1.843129
4.685500	1.843129
4.686000	1.842492
4.686500	1.844403
4.687000	1.844403
4.687500	1.842492
4.688000	1.844403
4.688500	1.844084
4.689000	1.843129
4.689500	1.844403
4.690000	1.843129
4.690500	1.842810
4.691000	1.843766
4.691500	1.843129
4.692000	1.843766
4.692500	1.843766
4.693000	1.843129
4.693500	1.844084
4.694000	1.843766
4.694500	1.842810
4.695000	1.843129
4.695500	1.843129
4.696000	1.844084
4.696500	1.842810
4.697000	1.842173
4.697500	1.843447
4.698000	1.842810
4.698500	1.842810
4.699000	1.844084
4.699500	1.842810
4.700000	1.843766
4.700500	1.843766
4.701000	1.843766
4.701500	1.842810
4.702000	1.842810
4.702500	1.842810
4.703000	1.843129
4.703500	1.843447
4.704000	1.843129
4.704500	1.843129
4.705000	1.843129
4.705500	1.843129
4.706000	1.843129
4.706500	1.841855
4.707000	1.843447
4.707500	1.843129
4.708000	1.843129
4.708500	1.844084
4.709000	1.842492
4.709500	1.842492
4.710000	1.843766
4.710500	1.842810
4.711000	1.843129
4.711500	1.842492
4.712000	1.841855
4.712500	1.843129
4.713000	1.843129
4.713500	1.842492
4.714000	1.842492
4.714500	1.842810
4.715000	1.843129
4.715500	1.843129
4.716000	1.842173
4.716500	1.843129
4.717000	1.842492
4.717500	1.842492
4.718000	1.842810
4.718500	1.842173
4.719000	1.842492
4.719500	1.843766
4.720000	1.843447
4.720500	1.842810
4.721000	1.842810
4.721500	1.843447
4.722000	1.843766
4.722500	1.843129
4.723000	1.842492
4.723500	1.842810
4.724000	1.843129
4.724500	1.842492
4.725000	1.843766
4.725500	1.843129
4.726000	1.842810
4.726500	1.843766
4.727000	1.843129
4.727500	1.843129
4.728000	1.843766
4.728500	1.842492
4.729000	1.842492
4.729500	1.843129
4.730000	1.842173
4.730500	1.843129
4.731000	1.842492
4.731500	1.842810
4.732000	1.843129
4.732500	1.842492
4.733000	1.842492
4.733500	1.843447
4.734000	1.841855
4.734500	1.843766
4.735000	1.842492
4.735500	1.842810
4.736000	1.843766
4.736500	1.842492
4.737000	1.843766
4.737500	1.842810
4.738000	1.842492
4.738500	1.843447
4.739000	1.842492
4.739500	1.842492
4.740000	1.843129
4.740500	1.842492
4.741000	1.843129
4.741500	1.842492
4.742000	1.841855
4.742500	1.842810
4.743000	1.842810
4.743500	1.842810
4.744000	1.843129
4.744500	1.841537
4.745000	1.842492
4.745500	1.843766
4.746000	1.843129
4.746500	1.842810
4.747000	1.842492
4.747500	1.842810
4.748000	1.843129
4.748500	1.842492
4.749000	1.841855
4.749500	1.842173
4.750000	1.842492
4.750500	1.843129
4.751000	1.843129
4.751500	1.841855
4.752000	1.842492
4.752500	1.843129
4.753000	1.842810
4.753500	1.842810
4.754000	1.842173
4.754500	1.842492
4.755000	1.842810
4.755500	1.842492
4.756000	1.842492
4.756500	1.842810
4.757000	1.842173
4.757500	1.842492
4.758000	1.842173
4.758500	1.842173
4.759000	1.843129
4.759500	1.841855
4.760000	1.842810
4.760500	1.842492
4.761000	1.841855
4.761500	1.842173
4.762000	1.842810
4.762500	1.841537
4.763000	1.842492
4.763500	1.842492
4.764000	1.841537
4.764500	1.843129
4.765000	1.842173
4.765500	1.842810
4.766000	1.842492
4.766500	1.842173
4.767000	1.843129
4.767500	1.842492
4.768000	1.842492
4.768500	1.842173
4.769000	1.841537
4.769500	1.843129
4.770000	1.842173
4.770500	1.842173
4.771000	1.842810
4.771500	1.842492
4.772000	1.842492
4.772500	1.842492
4.773000	1.842492
4.773500	1.842492
4.774000	1.843129
4.774500	1.842492
4.775000	1.842173
4.775500	1.841537
4.776000	1.842492
4.776500	1.842810
4.777000	1.842492
4.777500	1.841537
4.778000	1.841855
4.778500	1.841537
4.779000	1.841855
4.779500	1.841855
4.780000	1.841537
4.780500	1.842492
4.781000	1.842173
4.781500	1.841855
4.782000	1.842492
4.782500	1.841537
4.783000	1.842492
4.783500	1.843129
4.784000	1.841855
4.784500	1.842492
4.785000	1.841537
4.785500	1.841218
4.786000	1.843129
4.786500	1.843129
4.787000	1.841537
4.787500	1.841855
4.788000	1.841218
4.788500	1.842173
4.789000	1.841855
4.789500	1.840263
4.790000	1.842492
4.790500	1.841855
4.791000	1.842173
4.791500	1.842173
4.792000	1.841855
4.792500	1.842173
4.793000	1.842492
4.793500	1.841855
4.794000	1.842492
4.794500	1.841855
4.795000	1.842173
4.795500	1.843129
4.796000	1.842492
4.796500	1.841537
4.797000	1.842173
4.797500	1.841855
4.798000	1.842810
4.798500	1.841537
4.799000	1.841537
4.799500	1.842173
4.800000	1.842492
4.800500	1.842173
4.801000	1.842492
4.801500	1.841855
4.802000	1.842173
4.802500	1.843129
4.803000	1.841855
4.803500	1.842492
4.804000	1.841855
4.804500	1.842173
4.805000	1.842173
4.805500	1.842492
4.806000	1.840900
4.806500	1.842173
4.807000	1.842492
4.807500	1.842492
4.808000	1.842492
4.808500	1.842492
4.809000	1.842173
4.809500	1.842492
4.810000	1.841537
4.810500	1.842492
4.811000	1.842492
4.811500	1.842492
4.812000	1.843129
4.812500	1.842173
4.813000	1.842810
4.813500	1.841855
4.814000	1.842492
4.814500	1.842173
4.815000	1.841855
4.815500	1.841537
4.816000	1.841855
4.816500	1.841855
4.817000	1.842810
4.817500	1.842810
4.818000	1.841855
4.818500	1.842810
4.819000	1.842492
4.819500	1.843129
4.820000	1.842492
4.820500	1.842492
4.821000	1.841855
4.821500	1.843766
4.822000	1.841855
4.822500	1.842173
4.823000	1.841855
4.823500	1.842492
4.824000	1.842492
4.824500	1.842173
4.825000	1.841855
4.825500	1.842173
4.826000	1.841855
4.826500	1.842492
4.827000	1.841855
4.827500	1.841855
4.828000	1.842810
4.828500	1.842492
4.829000	1.842173
4.829500	1.842810
4.830000	1.842173
4.830500	1.841855
4.831000	1.842810
4.831500	1.841537
4.832000	1.842810
4.832500	1.841855
4.833000	1.841855
4.833500	1.843129
4.834000	1.842173
4.834500	1.840900
4.835000	1.842492
4.835500	1.842492
4.836000	1.841855
4.836500	1.843129
4.837000	1.841855
4.837500	1.842810
4.838000	1.842492
4.838500	1.842173
4.839000	1.843129
4.839500	1.842810
4.840000	1.843129
4.840500	1.843766
4.841000	1.842173
4.841500	1.842492
4.842000	1.842810
4.842500	1.842810
4.843000	1.842810
4.843500	1.842492
4.844000	1.842173
4.844500	1.842173
4.845000	1.842492
4.845500	1.842810
4.846000	1.843129
4.846500	1.842173
4.847000	1.843129
4.847500	1.843447
4.848000	1.842173
4.848500	1.843129
4.849000	1.842173
4.849500	1.842492
4.850000	1.843129
4.850500	1.842492
4.851000	1.841855
4.851500	1.842810
4.852000	1.842492
4.852500	1.842810
4.853000	1.842173
4.853500	1.842173
4.854000	1.842492
4.854500	1.841855
4.855000	1.842173
4.855500	1.842810
4.856000	1.841537
4.856500	1.842492
4.857000	1.842810
4.857500	1.842492
4.858000	1.842492
4.858500	1.841855
4.859000	1.841855
4.859500	1.843766
4.860000	1.842173
4.860500	1.841855
4.861000	1.842810
4.861500	1.841855
4.862000	1.843129
4.862500	1.841855
4.863000	1.841537
4.863500	1.842173
4.864000	1.842173
4.864500	1.841855
4.865000	1.842810
4.865500	1.841855
4.866000	1.842173
4.866500	1.843447
4.867000	1.842492
4.867500	1.842810
4.868000	1.841855
4.868500	1.842492
4.869000	1.843129
4.869500	1.842173
4.870000	1.842810
4.870500	1.841537
4.871000	1.842492
4.871500	1.842492
4.872000	1.842492
4.872500	1.840581
4.873000	1.842810
4.873500	1.841855
4.874000	1.841855
4.874500	1.842492
4.875000	1.841855
4.875500	1.842492
4.876000	1.842810
4.876500	1.842492
4.877000	1.842810
4.877500	1.841855
4.878000	1.842173
4.878500	1.843129
4.879000	1.842810
4.879500	1.842492
4.880000	1.843447
4.880500	1.841537
4.881000	1.843129
4.881500	1.843129
4.882000	1.842492
4.882500	1.843129
4.883000	1.842173
4.883500	1.843447
4.884000	1.843129
4.884500	1.841855
4.885000	1.842810
4.885500	1.844084
4.886000	1.842810
4.886500	1.843447
4.887000	1.841537
4.887500	1.843129
4.888000	1.844084
4.888500	1.842810
4.889000	1.841537
4.889500	1.843129
4.890000	1.842492
4.890500	1.842810
4.891000	1.843129
4.891500	1.843129
4.892000	1.843447
4.892500	1.843129
4.893000	1.843766
4.893500	1.843766
4.894000	1.842810
4.894500	1.843766
4.895000	1.843766
4.895500	1.842810
4.896000	1.843129
4.896500	1.843129
4.897000	1.843129
4.897500	1.844084
4.898000	1.843129
4.898500	1.842173
4.899000	1.843447
4.899500	1.842810
4.900000	1.843766
4.900500	1.843447
4.901000	1.842492
4.901500	1.843447
4.902000	1.843766
4.902500	1.842810
4.903000	1.843766
4.903500	1.842810
4.904000	1.843129
4.904500	1.844084
4.905000	1.843766
4.905500	1.843129
4.906000	1.843129
4.906500	1.842810
4.907000	1.844084
4.907500	1.842810
4.908000	1.843129
4.908500	1.843447
4.909000	1.842810
4.909500	1.843129
4.910000	1.843447
4.910500	1.841855
4.911000	1.843129
4.911500	1.843129
4.912000	1.842810
4.912500	1.843129
4.913000	1.843129
4.913500	1.843129
4.914000	1.843766
4.914500	1.842810
4.915000	1.842810
4.915500	1.842810
4.916000	1.842492
4.916500	1.843447
4.917000	1.841855
4.917500	1.841537
4.918000	1.842173
4.918500	1.842810
4.919000	1.842492
4.919500	1.842810
4.920000	1.841855
4.920500	1.843129
4.921000	1.843129
4.921500	1.843129
4.922000	1.843447
4.922500	1.843129
4.923000	1.842492
4.923500	1.843129
4.924000	1.843766
4.924500	1.842492
4.925000	1.843129
4.925500	1.841855
4.926000	1.842810
4.926500	1.842810
4.927000	1.842492
4.927500	1.843447
4.928000	1.842492
4.928500	1.843129
4.929000	1.843447
4.929500	1.841855
4.930000	1.843129
4.930500	1.843766
4.931000	1.842492
4.931500	1.842810
4.932000	1.842492
4.932500	1.843447
4.933000	1.843766
4.933500	1.842492
4.934000	1.842810
4.934500	1.843129
4.935000	1.842810
4.935500	1.843766
4.936000	1.843129
4.936500	1.842810
4.937000	1.843766
4.937500	1.841855
4.938000	1.842810
4.938500	1.842810
4.939000	1.841855
4.939500	1.843129
4.940000	1.842810
4.940500	1.842492
4.941000	1.842810
4.941500	1.842810
4.942000	1.842810
4.942500	1.843766
4.943000	1.842492
4.943500	1.843129
4.944000	1.842492
4.944500	1.843447
4.945000	1.843129
4.945500	1.842492
4.946000	1.841855
4.946500	1.842492
4.947000	1.842492
4.947500	1.842810
4.948000	1.843447
4.948500	1.842492
4.949000	1.842810
4.949500	1.843766
4.950000	1.842173
4.950500	1.843447
4.951000	1.842492
4.951500	1.841855
4.952000	1.843766
4.952500	1.842492
4.953000	1.842492
4.953500	1.842810
4.954000	1.841855
4.954500	1.842810
4.955000	1.843447
4.955500	1.841537
4.956000	1.843129
4.956500	1.841855
4.957000	1.842492
4.957500	1.843129
4.958000	1.841537
4.958500	1.842492
4.959000	1.842492
4.959500	1.842492
4.960000	1.841855
4.960500	1.842492
4.961000	1.841855
4.961500	1.843129
4.962000	1.842810
4.962500	1.843129
4.963000	1.842810
4.963500	1.842492
4.964000	1.842810
4.964500	1.842810
4.965000	1.841855
4.965500	1.842810
4.966000	1.842492
4.966500	1.841855
4.967000	1.842810
4.967500	1.841855
4.968000	1.842810
4.968500	1.843129
4.969000	1.842810
4.969500	1.842810
4.970000	1.842492
4.970500	1.842810
4.971000	1.843129
4.971500	1.842492
4.972000	1.842492
4.972500	1.842492
4.973000	1.842173
4.973500	1.842810
4.974000	1.843129
4.974500	1.841855
4.975000	1.842492
4.975500	1.842810
4.976000	1.842492
4.976500	1.843447
4.977000	1.842492
4.977500	1.842492
4.978000	1.843766
4.978500	1.842810
4.979000	1.843129
4.979500	1.843766
4.980000	1.842810
4.980500	1.843129
4.981000	1.842810
4.981500	1.842173
4.982000	1.843129
4.982500	1.842492
4.983000	1.842810
4.983500	1.843129
4.984000	1.842173
4.984500	1.843766
4.985000	1.843129
4.985500	1.842492
4.986000	1.843447
4.986500	1.842492
4.987000	1.843129
4.987500	1.843129
4.988000	1.843129
4.988500	1.843129
4.989000	1.843129
4.989500	1.843129
4.990000	1.843129
4.990500	1.843129
4.991000	1.842810
4.991500	1.842810
4.992000	1.843766
4.992500	1.843129
4.993000	1.843766
4.993500	1.842173
4.994000	1.843129
4.994500	1.842492
4.995000	1.842492
4.995500	1.843447
4.996000	1.842492
4.996500	1.842492
4.997000	1.843766
4.997500	1.842492
4.998000	1.843129
4.998500	1.842492
4.999000	1.842492
4.999500	1.843766

